Name: Burkeite Na6(CO3)(SO4)2
Type: Mineral
Class: Carbonate
Subclass: None
Particle Size: Unsieved coarse powder
Sample No.: NMNH 105598
Owner: Smithsonian Institute, National Museum of Nat. History
Wavelength range: 0.40 - 14.05 um
Origin: Searles Lake, California

Description: Burkeite from Searles Lake, CA





Measurement: Directional Hemispherical Reflectance
First Column: X
Second Column: Y
X Units: Wavelength (micrometers)
Y Units: Reflectance (percent)
First X Value: 14.05105
Last X Value: 0.40000
Number of X Values: 2756
Additional Information: None

 14.051   4.3981
 14.013   5.3148
 13.975   6.0770
 13.938   6.4684
 13.900   6.7465
 13.863   6.9319
 13.826   7.1997
 13.790   7.3027
 13.753   7.5087
 13.717   7.6632
 13.680   7.9104
 13.644   7.9413
 13.609   8.0855
 13.573   8.1782
 13.538   8.3018
 13.502   8.4357
 13.467   8.6932
 13.432   8.7962
 13.398   8.9301
 13.363   8.9816
 13.329   9.1258
 13.295   9.1979
 13.261   9.3318
 13.227   9.3524
 13.193   9.4966
 13.160   9.5893
 13.126   9.6820
 13.093   9.7747
 13.060   9.9189
 13.027   9.8983
 12.995   9.9807
 12.962  10.0837
 12.930  10.3309
 12.898  10.5369
 12.866  10.7944
 12.834  10.9180
 12.802  11.0828
 12.771  11.2064
 12.739  11.4227
 12.708  11.5875
 12.677  11.7008
 12.646  11.8038
 12.616  11.9480
 12.585  11.9995
 12.554  12.0819
 12.524  12.2158
 12.494  12.4321
 12.464  12.5145
 12.434  12.6175
 12.404  12.6484
 12.375  12.7102
 12.345  12.8132
 12.316  12.9780
 12.287  13.0810
 12.258  13.1737
 12.229  13.2046
 12.200  13.3076
 12.171  13.2973
 12.143  13.3282
 12.115  13.2973
 12.086  13.2870
 12.058  13.2561
 12.030  13.3179
 12.002  13.3076
 11.975  13.2870
 11.947  13.1943
 11.920  13.1943
 11.892  13.0604
 11.865  12.9677
 11.838  12.8544
 11.811  12.6175
 11.784  11.8862
 11.757  10.5163
 11.731   9.2803
 11.704   9.5069
 11.678  10.1867
 11.652  10.9489
 11.626  11.1343
 11.600  10.6914
 11.574   9.9910
 11.548   9.2803
 11.522   8.4460
 11.497   7.4469
 11.471   6.2109
 11.446   5.0573
 11.421   4.1200
 11.396   3.5020
 11.371   2.9252
 11.346   2.5235
 11.321   2.3381
 11.297   2.7295
 11.272   3.6359
 11.248   4.8822
 11.223   6.0873
 11.199   7.1276
 11.175   7.9516
 11.151   8.6520
 11.127   9.2082
 11.103   9.7335
 11.079  10.1661
 11.056  10.5060
 11.032  10.7738
 11.009  11.0622
 10.985  11.2682
 10.962  11.4845
 10.939  11.6081
 10.916  11.7523
 10.893  11.8038
 10.870  11.9274
 10.848  11.9583
 10.825  11.9068
 10.802  11.8450
 10.780  11.9995
 10.758  12.0716
 10.735  12.1540
 10.713  12.2158
 10.691  12.3085
 10.669  12.4115
 10.647  12.4939
 10.625  12.4218
 10.604  12.4527
 10.582  12.3600
 10.560  12.2879
 10.539  12.2158
 10.518  12.1231
 10.496  11.9995
 10.475  11.9274
 10.454  11.8656
 10.433  11.8862
 10.412  11.8862
 10.391  11.8450
 10.370  11.6699
 10.350  11.4536
 10.329  11.2579
 10.309  11.1343
 10.288  10.8562
 10.268  10.5678
 10.247  10.3000
 10.227  10.1043
 10.207   9.8880
 10.187   9.7129
 10.167   9.3215
 10.147   8.7962
 10.127   7.9104
 10.108   6.8598
 10.088   5.7371
 10.068   4.9028
 10.049   4.5217
 10.029   4.6865
 10.010   5.2839
  9.991   6.1800
  9.972   6.8701
  9.952   7.2718
  9.933   7.3851
  9.914   7.3439
  9.895   7.2203
  9.877   7.2306
  9.858   7.3336
  9.839   7.4572
  9.821   7.5602
  9.802   7.6941
  9.783   7.6838
  9.765   7.6323
  9.747   7.5293
  9.728   7.4263
  9.710   7.3027
  9.692   7.2615
  9.674   7.0967
  9.656   6.9525
  9.638   6.8289
  9.620   6.7053
  9.602   6.4890
  9.585   6.3757
  9.567   6.2624
  9.549   6.2212
  9.532   6.1285
  9.514   5.9946
  9.497   5.8916
  9.479   5.7989
  9.462   5.6032
  9.445   5.3972
  9.428   5.0264
  9.411   4.6968
  9.394   4.6041
  9.377   4.6865
  9.360   4.7483
  9.343   4.9028
  9.326   4.9543
  9.309   4.9646
  9.293   4.9234
  9.276   4.8616
  9.259   4.7998
  9.243   4.7998
  9.226   4.6968
  9.210   4.5835
  9.194   4.3981
  9.178   4.3363
  9.161   4.3363
  9.145   4.3054
  9.129   4.2230
  9.113   4.3466
  9.097   4.4290
  9.081   4.5011
  9.065   4.6144
  9.049   4.7689
  9.034   4.9543
  9.018   5.2633
  9.002   5.5105
  8.987   5.7474
  8.971   5.8195
  8.956   5.9637
  8.940   6.0873
  8.925   6.0976
  8.909   6.2109
  8.894   6.4581
  8.879   6.5817
  8.864   6.6847
  8.849   6.6332
  8.834   6.4993
  8.819   6.3139
  8.804   6.2006
  8.789   6.0976
  8.774   5.9843
  8.759   5.8195
  8.744   5.7886
  8.730   5.7989
  8.715   5.8916
  8.700   5.9946
  8.686   6.0976
  8.671   6.1697
  8.657   6.3448
  8.642   6.6126
  8.628   6.9525
  8.614   7.1894
  8.599   7.4057
  8.585   7.6220
  8.571   7.8383
  8.557   7.9619
  8.543   8.0031
  8.529   7.9104
  8.515   7.8074
  8.501   7.6426
  8.487   7.4778
  8.473   7.3439
  8.459   7.2512
  8.445   6.9525
  8.431   6.6229
  8.418   6.3345
  8.404   6.1182
  8.391   5.8710
  8.377   5.7268
  8.363   5.6547
  8.350   5.7268
  8.337   5.7577
  8.323   5.7989
  8.310   5.6753
  8.297   5.3663
  8.283   4.8719
  8.270   4.3054
  8.257   3.6256
  8.244   2.9458
  8.231   2.3690
  8.218   1.9879
  8.205   1.6686
  8.192   1.4729
  8.179   1.2772
  8.166   1.1124
  8.153   0.9888
  8.140   1.0094
  8.128   0.9785
  8.115   0.9270
  8.102   0.8137
  8.090   0.7725
  8.077   0.7416
  8.064   0.7107
  8.052   0.7519
  8.039   0.8343
  8.027   0.8137
  8.015   0.7931
  8.002   0.8034
  7.990   0.8858
  7.978   0.8858
  7.965   0.9167
  7.953   0.9785
  7.941   1.0300
  7.929   1.0300
  7.917   1.0094
  7.905   1.0609
  7.893   1.1227
  7.881   1.1433
  7.869   1.2772
  7.857   1.3493
  7.845   1.4420
  7.833   1.4935
  7.821   1.5656
  7.809   1.6583
  7.798   1.7510
  7.786   1.7819
  7.774   1.8849
  7.763   1.9467
  7.751   2.0188
  7.739   2.1012
  7.728   2.2351
  7.716   2.3072
  7.705   2.4514
  7.694   2.5441
  7.682   2.6368
  7.671   2.7295
  7.659   2.8531
  7.648   2.9561
  7.637   3.0488
  7.626   3.1415
  7.614   3.2445
  7.603   3.2857
  7.592   3.3578
  7.581   3.4299
  7.570   3.4814
  7.559   3.5535
  7.548   3.7080
  7.537   3.7801
  7.526   3.8110
  7.515   3.8007
  7.504   3.8419
  7.493   3.9655
  7.483   4.1406
  7.472   4.1612
  7.461   4.1921
  7.450   4.2951
  7.440   4.3569
  7.429   4.3775
  7.418   4.4290
  7.408   4.5011
  7.397   4.5423
  7.387   4.5217
  7.376   4.4908
  7.366   4.5114
  7.355   4.6041
  7.345   4.5732
  7.334   4.5011
  7.324   4.4805
  7.314   4.5217
  7.303   4.4599
  7.293   4.3878
  7.283   4.3466
  7.273   4.2642
  7.263   4.1200
  7.252   4.0376
  7.242   3.9449
  7.232   3.9140
  7.222   3.8419
  7.212   3.8316
  7.202   3.7286
  7.192   3.7080
  7.182   3.6771
  7.172   3.5535
  7.162   3.3887
  7.152   3.2342
  7.143   3.0076
  7.133   2.8222
  7.123   2.7501
  7.113   2.6677
  7.103   2.5441
  7.094   2.4617
  7.084   2.4926
  7.074   2.5338
  7.065   2.4411
  7.055   2.4205
  7.046   2.3896
  7.036   2.3690
  7.026   2.4411
  7.017   2.5338
  7.007   2.5441
  6.998   2.6265
  6.989   2.6780
  6.979   2.6574
  6.970   2.5956
  6.960   2.5853
  6.951   2.6059
  6.942   2.7089
  6.932   2.8428
  6.923   2.9252
  6.914   2.9664
  6.905   2.9973
  6.896   3.0591
  6.886   3.0900
  6.877   3.0282
  6.868   2.9870
  6.859   2.9561
  6.850   3.0900
  6.841   3.3269
  6.832   3.5226
  6.823   3.6668
  6.814   3.8831
  6.805   4.1303
  6.796   4.3672
  6.787   4.4599
  6.778   4.6144
  6.770   4.7380
  6.761   4.7792
  6.752   4.6762
  6.743   4.4290
  6.734   4.0788
  6.726   3.7595
  6.717   3.4917
  6.708   3.2960
  6.700   3.1518
  6.691   3.1209
  6.682   3.0282
  6.674   2.8222
  6.665   2.6471
  6.657   2.4514
  6.648   2.2042
  6.640   1.9467
  6.631   1.7201
  6.623   1.6480
  6.614   1.5862
  6.606   1.5244
  6.597   1.5141
  6.589   1.4626
  6.581   1.4008
  6.572   1.3905
  6.564   1.3493
  6.556   1.3905
  6.547   1.4523
  6.539   1.5244
  6.531   1.5450
  6.523   1.5965
  6.514   1.5862
  6.506   1.6377
  6.498   1.6068
  6.490   1.5759
  6.482   1.6377
  6.474   1.7201
  6.466   1.7716
  6.458   1.8540
  6.450   1.8952
  6.442   1.9467
  6.434   1.9364
  6.426   1.9261
  6.418   1.9982
  6.410   1.9570
  6.402   1.9982
  6.394   2.0806
  6.386   2.0497
  6.378   2.0291
  6.370   2.0394
  6.363   2.0806
  6.355   2.1218
  6.347   2.1012
  6.339   2.0497
  6.332   2.1527
  6.324   2.2351
  6.316   2.2454
  6.308   2.2454
  6.301   2.3484
  6.293   2.3999
  6.286   2.4205
  6.278   2.4514
  6.270   2.5132
  6.263   2.5544
  6.255   2.5750
  6.248   2.5544
  6.240   2.5647
  6.233   2.5544
  6.225   2.5647
  6.218   2.5750
  6.210   2.6368
  6.203   2.6780
  6.195   2.7295
  6.188   2.7604
  6.181   2.8222
  6.173   2.9046
  6.166   2.9561
  6.159   2.9973
  6.151   3.1209
  6.144   3.2548
  6.137   3.3784
  6.130   3.5020
  6.122   3.5741
  6.115   3.5844
  6.108   3.6359
  6.101   3.8316
  6.094   4.0067
  6.086   4.1612
  6.079   4.2848
  6.072   4.3363
  6.065   4.4702
  6.058   4.6453
  6.051   4.6865
  6.044   4.6659
  6.037   4.9646
  6.030   5.2839
  6.023   5.4899
  6.016   5.6135
  6.009   5.7474
  6.002   5.9328
  5.995   6.0873
  5.988   6.0667
  5.981   6.1697
  5.974   6.4375
  5.967   6.5714
  5.960   6.6744
  5.954   6.9422
  5.947   7.0658
  5.940   7.0864
  5.933   7.0349
  5.926   7.3542
  5.920   7.6632
  5.913   7.8692
  5.906   8.0958
  5.899   8.2194
  5.893   8.1473
  5.886   8.3430
  5.879   8.4357
  5.873   8.6726
  5.866   9.0434
  5.859   9.2597
  5.853   9.5584
  5.846   9.8159
  5.840  10.0528
  5.833  10.2382
  5.827  10.2691
  5.820  10.3000
  5.813  10.5884
  5.807  11.0519
  5.800  11.2373
  5.794  11.2991
  5.788  11.4124
  5.781  11.4742
  5.775  11.4124
  5.768  11.3094
  5.762  11.1549
  5.755  11.4639
  5.749  11.6596
  5.743  11.5875
  5.736  11.6184
  5.730  11.5154
  5.724  11.1755
  5.717  10.5575
  5.711   9.7026
  5.705   8.6005
  5.698   7.3130
  5.692   5.9122
  5.686   4.5732
  5.680   3.6668
  5.674   3.1209
  5.667   2.8737
  5.661   2.8943
  5.655   3.1003
  5.649   3.6153
  5.643   4.4290
  5.637   5.7989
  5.630   7.6838
  5.624   9.6202
  5.618  11.3712
  5.612  12.7823
  5.606  13.9153
  5.600  14.6981
  5.594  15.3779
  5.588  15.9341
  5.582  16.1813
  5.576  16.3770
  5.570  16.9023
  5.564  17.3864
  5.558  17.6233
  5.552  17.7263
  5.546  17.9323
  5.540  18.2001
  5.534  18.4473
  5.528  18.6224
  5.523  18.7048
  5.517  18.8078
  5.511  19.0344
  5.505  19.2610
  5.499  19.4258
  5.493  19.5494
  5.487  19.7245
  5.482  19.8687
  5.476  19.9614
  5.470  20.2086
  5.464  20.3322
  5.459  20.4661
  5.453  20.8987
  5.447  21.1768
  5.441  21.3725
  5.436  21.5373
  5.430  21.7536
  5.424  21.7742
  5.419  21.6815
  5.413  22.0008
  5.407  22.3716
  5.402  22.5879
  5.396  22.7939
  5.390  22.8969
  5.385  23.0102
  5.379  23.1235
  5.374  23.2265
  5.368  23.2780
  5.363  23.3707
  5.357  23.4016
  5.352  23.3192
  5.346  23.2265
  5.341  23.4840
  5.335  23.7415
  5.330  23.8651
  5.324  23.9578
  5.319  24.0402
  5.313  24.1020
  5.308  24.1741
  5.302  24.2462
  5.297  24.2977
  5.291  24.2565
  5.286  24.3492
  5.281  24.5346
  5.275  24.5655
  5.270  24.6376
  5.265  24.7612
  5.259  24.8333
  5.254  24.8951
  5.249  24.9569
  5.243  25.0187
  5.238  25.0290
  5.233  25.0393
  5.227  25.1938
  5.222  25.2865
  5.217  25.2865
  5.212  25.2041
  5.206  25.3071
  5.201  25.4925
  5.196  25.4410
  5.191  25.5337
  5.186  25.6470
  5.180  25.6676
  5.175  25.6470
  5.170  25.6779
  5.165  25.6779
  5.160  25.6779
  5.155  25.6882
  5.150  25.6676
  5.145  25.5852
  5.139  25.6985
  5.134  25.8118
  5.129  25.8221
  5.124  25.8839
  5.119  25.9766
  5.114  26.0178
  5.109  26.0796
  5.104  26.0693
  5.099  26.0693
  5.094  26.1105
  5.089  26.1208
  5.084  26.0590
  5.079  25.9663
  5.074  25.9045
  5.069  25.7912
  5.064  25.5646
  5.059  25.3689
  5.054  25.1423
  5.049  24.9466
  5.044  24.8127
  5.040  24.7509
  5.035  24.7097
  5.030  24.7406
  5.025  24.8127
  5.020  24.9569
  5.015  25.1423
  5.010  25.3895
  5.005  25.5543
  5.001  25.6470
  4.996  25.6882
  4.991  25.7294
  4.986  25.6573
  4.981  25.5852
  4.977  25.5646
  4.972  25.5028
  4.967  25.4204
  4.962  25.3689
  4.958  25.2556
  4.953  25.1423
  4.948  25.0702
  4.943  24.9878
  4.939  24.8745
  4.934  24.7818
  4.929  24.6685
  4.925  24.5552
  4.920  24.3904
  4.915  24.2050
  4.911  24.0402
  4.906  23.8651
  4.901  23.7003
  4.897  23.5664
  4.892  23.3501
  4.888  23.1029
  4.883  22.8042
  4.878  22.5055
  4.874  22.1862
  4.869  21.8566
  4.865  21.4755
  4.860  21.0944
  4.856  20.7133
  4.851  20.3837
  4.846  19.9923
  4.842  19.5288
  4.837  19.0138
  4.833  18.4576
  4.828  17.8087
  4.824  17.0877
  4.819  16.3255
  4.815  15.5324
  4.810  14.6672
  4.806  13.6784
  4.802  12.6793
  4.797  11.6905
  4.793  10.7223
  4.788   9.8262
  4.784   8.9919
  4.779   8.3121
  4.775   7.7147
  4.771   7.2615
  4.766   6.8701
  4.762   6.4684
  4.758   6.1800
  4.753   5.9019
  4.749   5.6650
  4.744   5.5414
  4.740   5.4796
  4.736   5.4693
  4.731   5.4487
  4.727   5.4590
  4.723   5.5517
  4.719   5.6547
  4.714   5.7474
  4.710   5.8298
  4.706   5.8607
  4.701   5.9740
  4.697   6.1903
  4.693   6.3139
  4.689   6.3654
  4.684   6.4375
  4.680   6.5714
  4.676   6.7156
  4.672   6.8495
  4.668   6.9834
  4.663   7.0452
  4.659   7.1688
  4.655   7.3542
  4.651   7.4984
  4.647   7.5911
  4.643   7.6941
  4.638   7.7868
  4.634   7.9928
  4.630   8.1885
  4.626   8.2915
  4.622   8.4151
  4.618   8.6314
  4.614   8.7962
  4.610   8.9816
  4.605   9.1773
  4.601   9.3215
  4.597   9.5172
  4.593   9.6923
  4.589   9.8571
  4.585   9.9910
  4.581  10.1455
  4.577  10.3000
  4.573  10.5060
  4.569  10.8047
  4.565  11.1137
  4.561  11.4536
  4.557  11.9068
  4.553  12.3909
  4.549  12.9059
  4.545  13.3591
  4.541  13.7402
  4.537  14.1110
  4.533  14.3479
  4.529  14.5024
  4.525  14.6054
  4.521  14.5745
  4.517  14.4612
  4.513  14.3479
  4.509  14.1728
  4.505  13.9256
  4.502  13.6578
  4.498  13.4106
  4.494  13.0604
  4.490  12.7514
  4.486  12.5248
  4.482  12.2364
  4.478  11.9480
  4.474  11.7008
  4.470  11.4948
  4.467  11.3197
  4.463  11.1034
  4.459  10.9283
  4.455  10.8047
  4.451  10.6399
  4.447  10.5163
  4.444  10.4545
  4.440  10.4442
  4.436  10.4339
  4.432  10.3721
  4.428  10.3618
  4.425  10.4545
  4.421  10.4648
  4.417  10.3721
  4.413  10.3309
  4.410  10.3515
  4.406  10.3309
  4.402  10.3000
  4.398  10.3515
  4.395  10.4648
  4.391  10.5060
  4.387  10.5678
  4.384  10.6399
  4.380  10.7017
  4.376  10.7532
  4.372  10.8150
  4.369  10.8871
  4.365  10.9798
  4.361  11.0210
  4.358  11.0210
  4.354  11.1034
  4.350  11.2167
  4.347  11.3403
  4.343  11.5360
  4.340  11.7111
  4.336  11.8450
  4.332  11.9995
  4.329  12.1643
  4.325  12.3291
  4.321  12.5042
  4.318  12.7308
  4.314  12.9986
  4.311  13.3179
  4.307  13.5239
  4.304  13.6887
  4.300  13.9771
  4.296  14.2861
  4.293  14.5436
  4.289  14.7599
  4.286  15.0586
  4.282  15.3367
  4.279  15.6354
  4.275  15.9959
  4.272  16.3049
  4.268  16.5212
  4.265  16.8096
  4.261  17.0465
  4.258  17.2422
  4.254  17.5924
  4.251  17.9735
  4.247  18.3752
  4.244  18.7563
  4.240  19.0344
  4.237  19.3434
  4.233  19.5906
  4.230  19.8275
  4.226  20.0747
  4.223  20.3116
  4.219  20.5279
  4.216  20.7545
  4.213  21.0120
  4.209  21.2386
  4.206  21.4137
  4.202  21.6815
  4.199  21.9493
  4.196  22.1553
  4.192  22.3716
  4.189  22.5776
  4.185  22.7630
  4.182  22.9381
  4.179  23.1544
  4.175  23.3604
  4.172  23.4325
  4.169  23.4634
  4.165  23.5870
  4.162  23.6488
  4.159  23.6385
  4.155  23.6591
  4.152  23.7312
  4.149  23.8136
  4.145  23.7930
  4.142  23.7312
  4.139  23.6694
  4.135  23.5767
  4.132  23.4119
  4.129  23.2574
  4.126  23.1338
  4.122  22.8969
  4.119  22.6085
  4.116  22.4025
  4.112  22.1553
  4.109  21.7742
  4.106  21.3416
  4.103  20.8369
  4.099  20.3734
  4.096  19.9305
  4.093  19.3743
  4.090  18.7048
  4.086  17.9014
  4.083  16.9744
  4.080  15.9032
  4.077  14.7599
  4.074  13.5136
  4.070  12.2467
  4.067  11.0519
  4.064   9.9910
  4.061   9.0331
  4.058   8.4151
  4.055   8.0134
  4.051   7.7662
  4.048   7.7456
  4.045   7.8486
  4.042   7.9722
  4.039   8.1370
  4.036   8.2606
  4.032   8.3739
  4.029   8.4254
  4.026   8.3945
  4.023   8.2709
  4.020   8.2194
  4.017   8.1576
  4.014   8.1576
  4.011   8.2709
  4.008   8.4151
  4.004   8.5284
  4.001   8.6520
  3.998   8.8374
  3.995   9.0228
  3.992   9.0640
  3.989   9.0537
  3.986   9.0640
  3.983   9.0640
  3.980   9.0846
  3.977   9.0022
  3.974   8.8889
  3.971   8.8683
  3.968   8.8786
  3.965   8.8889
  3.962   8.9198
  3.959   9.0949
  3.956   9.3112
  3.953   9.5996
  3.950   9.9189
  3.947  10.2382
  3.944  10.5060
  3.941  10.8253
  3.938  11.0828
  3.935  11.2682
  3.932  11.5463
  3.929  11.9377
  3.926  12.3600
  3.923  12.9265
  3.920  13.7608
  3.917  14.7496
  3.914  15.7899
  3.911  16.9435
  3.908  18.2825
  3.905  19.6009
  3.902  20.7236
  3.899  21.7845
  3.896  22.6909
  3.893  23.4119
  3.890  23.9166
  3.887  24.3389
  3.884  24.6891
  3.882  24.9260
  3.879  25.0908
  3.876  25.2865
  3.873  25.4101
  3.870  25.4719
  3.867  25.6264
  3.864  25.8427
  3.861  25.9457
  3.858  25.9766
  3.856  26.0384
  3.853  26.1414
  3.850  26.2547
  3.847  26.2753
  3.844  26.3062
  3.841  26.4710
  3.838  26.6152
  3.836  26.6564
  3.833  26.6873
  3.830  26.7491
  3.827  26.8212
  3.824  26.9345
  3.822  27.0787
  3.819  27.1405
  3.816  27.2023
  3.813  27.2435
  3.810  27.2641
  3.807  27.3568
  3.805  27.4392
  3.802  27.5113
  3.799  27.6143
  3.796  27.7585
  3.794  27.8409
  3.791  27.8512
  3.788  27.9027
  3.785  28.0366
  3.782  28.1705
  3.780  28.2220
  3.777  28.2323
  3.774  28.3044
  3.771  28.4280
  3.769  28.4486
  3.766  28.5516
  3.763  28.7267
  3.761  28.7782
  3.758  28.7473
  3.755  28.7576
  3.752  28.8709
  3.750  28.8915
  3.747  28.9842
  3.744  29.0872
  3.742  29.1593
  3.739  29.2005
  3.736  29.2520
  3.733  29.2726
  3.731  29.2932
  3.728  29.3344
  3.725  29.3138
  3.723  29.2108
  3.720  29.2005
  3.717  29.1078
  3.715  28.8915
  3.712  28.6443
  3.709  28.3971
  3.707  28.2632
  3.704  28.1808
  3.702  28.1396
  3.699  28.1396
  3.696  28.2014
  3.694  28.2529
  3.691  28.3353
  3.688  28.3868
  3.686  28.4486
  3.683  28.5207
  3.680  28.5619
  3.678  28.5928
  3.675  28.5825
  3.673  28.5516
  3.670  28.5722
  3.667  28.6031
  3.665  28.5104
  3.662  28.4280
  3.660  28.4898
  3.657  28.4692
  3.655  28.3353
  3.652  28.2426
  3.649  28.2323
  3.647  28.2014
  3.644  28.1705
  3.642  28.1190
  3.639  28.1087
  3.637  28.1602
  3.634  28.1190
  3.632  28.0984
  3.629  28.0675
  3.626  27.9645
  3.624  27.8100
  3.621  27.6452
  3.619  27.6143
  3.616  27.6246
  3.614  27.5010
  3.611  27.3053
  3.609  27.1096
  3.606  26.9036
  3.604  26.6770
  3.601  26.3577
  3.599  26.0384
  3.596  25.7191
  3.594  25.3483
  3.591  24.9878
  3.589  24.7303
  3.586  24.5655
  3.584  24.3389
  3.581  24.1638
  3.579  23.9887
  3.576  23.8033
  3.574  23.6385
  3.571  23.4325
  3.569  23.1956
  3.567  22.9484
  3.564  22.5776
  3.562  21.9596
  3.559  21.3107
  3.557  20.7545
  3.554  20.1880
  3.552  19.5803
  3.549  18.9108
  3.547  18.3134
  3.545  17.8396
  3.542  17.4688
  3.540  17.1598
  3.537  16.7993
  3.535  16.3770
  3.533  16.0268
  3.530  15.8311
  3.528  15.6354
  3.525  15.5015
  3.523  15.4500
  3.521  15.3264
  3.518  15.2646
  3.516  15.2131
  3.513  15.0071
  3.511  14.8114
  3.509  14.7084
  3.506  14.5024
  3.504  14.3067
  3.502  14.1007
  3.499  13.9462
  3.497  13.7814
  3.494  13.5033
  3.492  13.2149
  3.490  12.9677
  3.487  12.6484
  3.485  12.3909
  3.483  12.1334
  3.480  11.8656
  3.478  11.5978
  3.476  11.3403
  3.473  11.1240
  3.471  10.9798
  3.469  10.9386
  3.466  10.8974
  3.464  10.8768
  3.462  10.8665
  3.460  10.7944
  3.457  10.7223
  3.455  10.7429
  3.453  10.7429
  3.450  10.7841
  3.448  10.8562
  3.446  10.8356
  3.443  10.9386
  3.441  11.0828
  3.439  11.3094
  3.437  11.5463
  3.434  11.7420
  3.432  11.8450
  3.430  11.9377
  3.428  12.1128
  3.425  12.2982
  3.423  12.5042
  3.421  12.6793
  3.418  12.8132
  3.416  13.0192
  3.414  13.2149
  3.412  13.4724
  3.409  13.6372
  3.407  13.8844
  3.405  14.2964
  3.403  14.6672
  3.401  14.9144
  3.398  15.2234
  3.396  15.6251
  3.394  16.0062
  3.392  16.2122
  3.389  16.4491
  3.387  16.6963
  3.385  16.9641
  3.383  17.2731
  3.381  17.5512
  3.378  17.7160
  3.376  17.9220
  3.374  18.1898
  3.372  18.4885
  3.370  18.7151
  3.367  18.9211
  3.365  19.1786
  3.363  19.4464
  3.361  19.7348
  3.359  19.9717
  3.357  20.1468
  3.354  20.3940
  3.352  20.5279
  3.350  20.6412
  3.348  20.7648
  3.346  20.8678
  3.344  20.9296
  3.341  21.1150
  3.339  21.1768
  3.337  21.1562
  3.335  21.1356
  3.333  21.1253
  3.331  21.1562
  3.329  21.1974
  3.326  21.2180
  3.324  21.2386
  3.322  21.3004
  3.320  21.4137
  3.318  21.4240
  3.316  21.4034
  3.314  21.3519
  3.312  21.3828
  3.309  21.4961
  3.307  21.6094
  3.305  21.5991
  3.303  21.5785
  3.301  21.5991
  3.299  21.6300
  3.297  21.5888
  3.295  21.5167
  3.293  21.5064
  3.291  21.5682
  3.288  21.6197
  3.286  21.5785
  3.284  21.5373
  3.282  21.5579
  3.280  21.5064
  3.278  21.4755
  3.276  21.5270
  3.274  21.5888
  3.272  21.5682
  3.270  21.4755
  3.268  21.3519
  3.266  21.3622
  3.264  21.3519
  3.262  21.3313
  3.259  21.3004
  3.257  21.3107
  3.255  21.3725
  3.253  21.3313
  3.251  21.3210
  3.249  21.3725
  3.247  21.3004
  3.245  21.3107
  3.243  21.2283
  3.241  21.1871
  3.239  21.1871
  3.237  21.1459
  3.235  21.1253
  3.233  21.1253
  3.231  21.1253
  3.229  21.0944
  3.227  21.0120
  3.225  21.0120
  3.223  21.0429
  3.221  21.0738
  3.219  21.0429
  3.217  21.0017
  3.215  21.0429
  3.213  21.1562
  3.211  21.1150
  3.209  21.0841
  3.207  21.1150
  3.205  21.1047
  3.203  21.0532
  3.201  20.9605
  3.199  20.8987
  3.197  20.9296
  3.195  20.9811
  3.193  21.0120
  3.191  20.9193
  3.189  20.8575
  3.187  20.7648
  3.185  20.8163
  3.183  20.9605
  3.182  20.9399
  3.180  20.7957
  3.178  20.6824
  3.176  20.5691
  3.174  20.4867
  3.172  20.4558
  3.170  20.3528
  3.168  20.2189
  3.166  20.2086
  3.164  20.1468
  3.162  20.1056
  3.160  20.1365
  3.158  20.1056
  3.156  20.0438
  3.154  20.0747
  3.152  19.9923
  3.151  19.8584
  3.149  19.8069
  3.147  19.8378
  3.145  19.9408
  3.143  20.0026
  3.141  19.9614
  3.139  19.9511
  3.137  19.8687
  3.135  19.7966
  3.133  19.7245
  3.132  19.6936
  3.130  19.7039
  3.128  19.6833
  3.126  19.6318
  3.124  19.5597
  3.122  19.4876
  3.120  19.5391
  3.118  19.6112
  3.117  19.6009
  3.115  19.4876
  3.113  19.4052
  3.111  19.3949
  3.109  19.3846
  3.107  19.3228
  3.105  19.2919
  3.103  19.3434
  3.102  19.2816
  3.100  19.2816
  3.098  19.3846
  3.096  19.4155
  3.094  19.3434
  3.092  19.3228
  3.091  19.3331
  3.089  19.2507
  3.087  19.2301
  3.085  19.2404
  3.083  19.3331
  3.081  19.4361
  3.079  19.4670
  3.078  19.4052
  3.076  19.2919
  3.074  19.1580
  3.072  19.2198
  3.070  19.3537
  3.069  19.3022
  3.067  19.1477
  3.065  19.1374
  3.063  19.2404
  3.061  19.3125
  3.060  19.3022
  3.058  19.2713
  3.056  19.1580
  3.054  19.1065
  3.052  19.2198
  3.051  19.3228
  3.049  19.1992
  3.047  19.0447
  3.045  18.9211
  3.043  18.9829
  3.042  19.1580
  3.040  19.2919
  3.038  19.3022
  3.036  19.2095
  3.034  19.1065
  3.033  19.0241
  3.031  18.9623
  3.029  18.9829
  3.027  19.1271
  3.026  19.1683
  3.024  19.0859
  3.022  19.0859
  3.020  18.9829
  3.019  18.9520
  3.017  19.0447
  3.015  19.0859
  3.013  18.9314
  3.012  18.8593
  3.010  18.8593
  3.008  18.8696
  3.006  18.9520
  3.005  18.9314
  3.003  18.8284
  3.001  18.7666
  2.999  18.7460
  2.998  18.7563
  2.996  18.7769
  2.994  18.8181
  2.992  18.7460
  2.991  18.6430
  2.989  18.6739
  2.987  18.6945
  2.986  18.6842
  2.984  18.6739
  2.982  18.6739
  2.980  18.6842
  2.979  18.5194
  2.977  18.3752
  2.975  18.4267
  2.974  18.5091
  2.972  18.5194
  2.970  18.6636
  2.968  18.5709
  2.967  18.3752
  2.965  18.4061
  2.963  18.5091
  2.962  18.5194
  2.960  18.4267
  2.958  18.4370
  2.957  18.5194
  2.955  18.4885
  2.953  18.5091
  2.952  18.4679
  2.950  18.4782
  2.948  18.5812
  2.947  18.5709
  2.945  18.4473
  2.943  18.3958
  2.942  18.4061
  2.940  18.6018
  2.938  18.6327
  2.937  18.4679
  2.935  18.4370
  2.933  18.5400
  2.932  18.6327
  2.930  18.4782
  2.928  18.3958
  2.927  18.3855
  2.925  18.3752
  2.923  18.5091
  2.922  18.4885
  2.920  18.4370
  2.918  18.4885
  2.917  18.5297
  2.915  18.3958
  2.913  18.2825
  2.912  18.2825
  2.910  18.3237
  2.909  18.4473
  2.907  18.5091
  2.905  18.3855
  2.904  18.3237
  2.902  18.4679
  2.900  18.5091
  2.899  18.4885
  2.897  18.6018
  2.896  18.7151
  2.894  18.8799
  2.892  18.9417
  2.891  18.9108
  2.889  18.9314
  2.887  19.0962
  2.886  19.0550
  2.884  19.1992
  2.883  19.3846
  2.881  19.3331
  2.879  19.3537
  2.878  19.4052
  2.876  19.3846
  2.875  19.5288
  2.873  19.5906
  2.871  19.6215
  2.870  19.7966
  2.868  19.9305
  2.867  20.0541
  2.865  20.1571
  2.864  20.1571
  2.862  20.1262
  2.860  20.0747
  2.859  20.2086
  2.857  20.2498
  2.856  20.3116
  2.854  20.1880
  2.853  20.1365
  2.851  20.1880
  2.849  20.2498
  2.848  20.3425
  2.846  20.5691
  2.845  20.6927
  2.843  20.7751
  2.842  21.0326
  2.840  21.1459
  2.838  21.0738
  2.837  21.0841
  2.835  21.2180
  2.834  21.3725
  2.832  21.6918
  2.831  22.0935
  2.829  22.0729
  2.828  22.0420
  2.826  22.0214
  2.825  22.1656
  2.823  22.3819
  2.821  22.4540
  2.820  22.5467
  2.818  22.7218
  2.817  22.8145
  2.815  23.0617
  2.814  23.3089
  2.812  23.5973
  2.811  23.7930
  2.809  23.7827
  2.808  23.8136
  2.806  23.9372
  2.805  23.9372
  2.803  23.9578
  2.802  24.2668
  2.800  24.9157
  2.799  25.3174
  2.797  25.4719
  2.796  25.5749
  2.794  25.6058
  2.793  25.6058
  2.791  25.8324
  2.790  26.1620
  2.788  26.3062
  2.787  26.2959
  2.785  26.6255
  2.784  27.0066
  2.782  27.1302
  2.781  27.3362
  2.779  27.6452
  2.778  27.7379
  2.776  28.0572
  2.775  28.4177
  2.773  28.6649
  2.772  29.0048
  2.770  28.9945
  2.769  29.1181
  2.767  29.6125
  2.766  30.0039
  2.764  30.2923
  2.763  30.3026
  2.761  30.6528
  2.760  31.4356
  2.758  31.9609
  2.757  32.0433
  2.756  31.5901
  2.754  31.6416
  2.753  32.5068
  2.751  33.1969
  2.750  33.6810
  2.748  34.1239
  2.747  34.6183
  2.745  35.0406
  2.744  35.3908
  2.742  35.3496
  2.741  34.9685
  2.740  35.0303
  2.738  35.7822
  2.737  36.5650
  2.735  36.9049
  2.734  37.4199
  2.732  38.2542
  2.731  38.6971
  2.729  39.0885
  2.728  39.5520
  2.727  39.7786
  2.725  39.5314
  2.724  39.5005
  2.722  40.1803
  2.721  40.0155
  2.719  40.1906
  2.718  41.3339
  2.717  42.2197
  2.715  42.9098
  2.714  43.1570
  2.712  43.0643
  2.711  42.4978
  2.709  42.6008
  2.708  43.3939
  2.707  44.2797
  2.705  44.8771
  2.704  45.2376
  2.702  45.2685
  2.701  45.1758
  2.700  45.6290
  2.698  45.9792
  2.697  45.8968
  2.695  45.3818
  2.694  45.0831
  2.693  45.6805
  2.691  46.6899
  2.690  47.1740
  2.688  47.1843
  2.687  47.1637
  2.686  47.1019
  2.684  47.1122
  2.683  47.3491
  2.681  47.6169
  2.680  47.3182
  2.679  46.5354
  2.677  46.3397
  2.676  46.6590
  2.675  47.6066
  2.673  48.0701
  2.672  47.6581
  2.670  46.5251
  2.669  46.9268
  2.668  47.2976
  2.666  46.4633
  2.665  46.8032
  2.664  47.9774
  2.662  48.8220
  2.661  48.7396
  2.659  48.7293
  2.658  49.2649
  2.657  49.7078
  2.655  49.3267
  2.654  49.2443
  2.653  49.1619
  2.651  49.2134
  2.650  49.8829
  2.649  50.2743
  2.647  50.0992
  2.646  49.7490
  2.645  49.8829
  2.643  50.3567
  2.642  50.3876
  2.640  50.4391
  2.639  50.4906
  2.638  50.3670
  2.636  50.4803
  2.635  50.6039
  2.634  50.2949
  2.632  50.3464
  2.631  49.7284
  2.630  49.1825
  2.628  49.9550
  2.627  49.9550
  2.626  49.8211
  2.624  50.5833
  2.623  51.0468
  2.622  51.0365
  2.620  50.1507
  2.619  49.9653
  2.618  50.1919
  2.617  49.5842
  2.615  49.8417
  2.614  50.4391
  2.613  50.5833
  2.611  50.7790
  2.610  50.6760
  2.609  50.4494
  2.607  49.9241
  2.606  49.3061
  2.605  49.0898
  2.603  49.5224
  2.602  49.8623
  2.601  49.9859
  2.599  50.2640
  2.598  50.1816
  2.597  49.4194
  2.596  47.8332
  2.594  46.7105
  2.593  48.1216
  2.592  49.4709
  2.590  49.5327
  2.589  49.0074
  2.588  48.5542
  2.586  48.4203
  2.585  48.5233
  2.584  47.8229
  2.583  47.9259
  2.581  48.5439
  2.580  48.7911
  2.579  49.0589
  2.577  48.5954
  2.576  48.2349
  2.575  48.5233
  2.574  48.1216
  2.572  47.9671
  2.571  48.2658
  2.570  47.8847
  2.569  47.5242
  2.567  47.8641
  2.566  47.7817
  2.565  46.8959
  2.563  46.1028
  2.562  45.7732
  2.561  45.5775
  2.560  45.9792
  2.558  46.4530
  2.557  46.6178
  2.556  46.4015
  2.555  46.0925
  2.553  45.8659
  2.552  45.5775
  2.551  45.5775
  2.550  45.8659
  2.548  45.8762
  2.547  45.7732
  2.546  45.8247
  2.545  45.6702
  2.543  45.5466
  2.542  45.9483
  2.541  46.1955
  2.540  46.3500
  2.538  46.5560
  2.537  46.4015
  2.536  46.3294
  2.535  46.4942
  2.533  46.5148
  2.532  46.5663
  2.531  46.7723
  2.530  47.1019
  2.528  47.2770
  2.527  47.3182
  2.526  47.4212
  2.525  47.5654
  2.524  47.5448
  2.522  47.8641
  2.521  48.2040
  2.520  48.3379
  2.519  48.5954
  2.517  48.7808
  2.516  48.8529
  2.515  49.2546
  2.514  49.4812
  2.513  49.5018
  2.511  49.8417
  2.510  50.2331
  2.509  50.6142
  2.508  50.6039
  2.506  50.7378
  2.505  51.1704
  2.504  51.2734
  2.503  51.1498
  2.502  51.2631
  2.500  51.4279
  2.500  51.4279
  2.498  51.2961
  2.496  51.3963
  2.494  51.5081
  2.492  51.5570
  2.490  51.5529
  2.488  51.5680
  2.486  51.7471
  2.484  51.7981
  2.482  51.8322
  2.480  52.0098
  2.478  52.2670
  2.476  52.3026
  2.474  52.1625
  2.472  52.3959
  2.470  52.4749
  2.468  52.3608
  2.466  52.4310
  2.464  52.5690
  2.462  52.3748
  2.460  52.8726
  2.458  52.6129
  2.456  52.9198
  2.454  53.1686
  2.452  53.0538
  2.450  52.9381
  2.448  53.0727
  2.446  53.1622
  2.444  53.3303
  2.442  53.6153
  2.440  53.5606
  2.438  53.5358
  2.436  53.8280
  2.434  53.8288
  2.432  53.8276
  2.430  54.0039
  2.428  53.9422
  2.426  54.0018
  2.424  53.9916
  2.422  54.0673
  2.420  54.1851
  2.418  54.3603
  2.416  54.1752
  2.414  54.2558
  2.412  54.3571
  2.410  54.2983
  2.408  54.4157
  2.406  54.5172
  2.404  54.3873
  2.402  54.3722
  2.400  54.5927
  2.398  54.4683
  2.396  54.3775
  2.394  54.4049
  2.392  54.2572
  2.390  54.2235
  2.388  54.2379
  2.386  54.2578
  2.384  54.1285
  2.382  54.0671
  2.380  53.8950
  2.378  54.0672
  2.376  54.0016
  2.374  53.8561
  2.372  53.8879
  2.370  53.9625
  2.368  54.2126
  2.366  54.2894
  2.364  54.3117
  2.362  54.4197
  2.360  54.4470
  2.358  54.6416
  2.356  54.7762
  2.354  54.7747
  2.352  54.8339
  2.350  54.7763
  2.348  54.8655
  2.346  54.8175
  2.344  54.8459
  2.342  54.8589
  2.340  54.9759
  2.338  54.9616
  2.336  55.0051
  2.334  55.0858
  2.332  55.2714
  2.330  55.4481
  2.328  55.5222
  2.326  55.5575
  2.324  55.6009
  2.322  55.6321
  2.320  55.6099
  2.318  55.8664
  2.316  56.0034
  2.314  56.0211
  2.312  56.1606
  2.310  56.2007
  2.308  56.3227
  2.306  56.3614
  2.304  56.4405
  2.302  56.4630
  2.300  56.5645
  2.298  56.6034
  2.296  56.5797
  2.294  56.7712
  2.292  56.8785
  2.290  57.1275
  2.288  57.2240
  2.286  57.3489
  2.284  57.3807
  2.282  57.4001
  2.280  57.3943
  2.278  57.4845
  2.276  57.5080
  2.274  57.5501
  2.272  57.5822
  2.270  57.8125
  2.268  57.8212
  2.266  57.8064
  2.264  57.9482
  2.262  57.9134
  2.260  57.9348
  2.258  58.0771
  2.256  58.2538
  2.254  58.3409
  2.252  58.4362
  2.250  58.4048
  2.248  58.5617
  2.246  58.5735
  2.244  58.4668
  2.242  58.4704
  2.240  58.4271
  2.238  58.4282
  2.236  58.3843
  2.234  58.3923
  2.232  58.3545
  2.230  58.2823
  2.228  58.3725
  2.226  58.3925
  2.224  58.3363
  2.222  58.3750
  2.220  58.3866
  2.218  58.3896
  2.216  58.4768
  2.214  58.4587
  2.212  58.4297
  2.210  58.4170
  2.208  58.4517
  2.206  58.5903
  2.204  58.5735
  2.202  58.5073
  2.200  58.5786
  2.198  58.6423
  2.196  58.6649
  2.194  58.6521
  2.192  58.7462
  2.190  58.8440
  2.188  58.7155
  2.186  58.7675
  2.184  58.9947
  2.182  59.0181
  2.180  59.1047
  2.178  59.2117
  2.176  59.2522
  2.174  59.2634
  2.172  59.2405
  2.170  59.3261
  2.168  59.3585
  2.166  59.4128
  2.164  59.4929
  2.162  59.5529
  2.160  59.5449
  2.158  59.5215
  2.156  59.6181
  2.154  59.7702
  2.152  59.7397
  2.150  59.6495
  2.148  59.7058
  2.146  59.7273
  2.144  59.6242
  2.142  59.5745
  2.140  59.5285
  2.138  59.5790
  2.136  59.6248
  2.134  59.5927
  2.132  59.5178
  2.130  59.4161
  2.128  59.2797
  2.126  59.2291
  2.124  59.1691
  2.122  59.1389
  2.120  59.0459
  2.118  58.7533
  2.116  58.6825
  2.114  58.6644
  2.112  58.6142
  2.110  58.5933
  2.108  58.4830
  2.106  58.4627
  2.104  58.3097
  2.102  58.2623
  2.100  58.1533
  2.098  58.0239
  2.096  57.9103
  2.094  57.7011
  2.092  57.5061
  2.090  57.4892
  2.088  57.4560
  2.086  57.4129
  2.084  57.3130
  2.082  57.1361
  2.080  57.0390
  2.078  56.9326
  2.076  56.8426
  2.074  56.7430
  2.072  56.6689
  2.070  56.6048
  2.068  56.4698
  2.066  56.3830
  2.064  56.1765
  2.062  56.1295
  2.060  56.1883
  2.058  56.1138
  2.056  56.0229
  2.054  55.8618
  2.052  55.6913
  2.050  55.6099
  2.048  55.5313
  2.046  55.5431
  2.044  55.5219
  2.042  55.5369
  2.040  55.5140
  2.038  55.4382
  2.036  55.3002
  2.034  55.2225
  2.032  55.2698
  2.030  55.1663
  2.028  55.2146
  2.026  55.2406
  2.024  55.1155
  2.022  55.0892
  2.020  55.1184
  2.018  54.9687
  2.016  54.9627
  2.014  54.8060
  2.012  54.8591
  2.010  54.7459
  2.008  54.7261
  2.006  54.7247
  2.004  54.4563
  2.002  54.4956
  2.000  54.3638
  1.998  54.2805
  1.996  54.1145
  1.994  53.9965
  1.992  53.9210
  1.990  53.8091
  1.988  53.5535
  1.986  53.3988
  1.984  53.2718
  1.982  52.9894
  1.980  53.0603
  1.978  52.8153
  1.976  52.7443
  1.974  52.6064
  1.972  52.3991
  1.970  52.2508
  1.968  51.8935
  1.966  51.9496
  1.964  51.5611
  1.962  51.3063
  1.960  51.1950
  1.958  50.9454
  1.956  50.8632
  1.954  50.6301
  1.952  50.5614
  1.950  50.4180
  1.948  50.4771
  1.946  50.5778
  1.944  50.5017
  1.942  50.6814
  1.940  50.7179
  1.938  51.0001
  1.936  51.2931
  1.934  51.4918
  1.932  51.7271
  1.930  52.0835
  1.928  52.5409
  1.926  52.8899
  1.924  53.0959
  1.922  53.4495
  1.920  53.6689
  1.918  54.1080
  1.916  54.5462
  1.914  54.8743
  1.912  55.3477
  1.910  55.7790
  1.908  56.2324
  1.906  56.5647
  1.904  57.0034
  1.902  57.4217
  1.900  57.9247
  1.898  58.4670
  1.896  59.0437
  1.894  59.5855
  1.892  60.0531
  1.890  60.5528
  1.888  61.1209
  1.886  61.3513
  1.884  61.7465
  1.882  62.1390
  1.880  62.3479
  1.878  62.7061
  1.876  63.0239
  1.874  63.3179
  1.872  63.3790
  1.870  63.5662
  1.868  63.7421
  1.866  64.0629
  1.864  63.9954
  1.862  64.2745
  1.860  64.3501
  1.858  64.3548
  1.856  64.4861
  1.854  64.6884
  1.852  64.6442
  1.850  64.6739
  1.848  64.7798
  1.846  65.0129
  1.844  64.8005
  1.842  65.1470
  1.840  64.7653
  1.838  64.8363
  1.836  65.0076
  1.834  64.8789
  1.832  65.0495
  1.830  65.0366
  1.828  64.6945
  1.826  64.8947
  1.824  64.9906
  1.822  65.1018
  1.820  64.8244
  1.818  64.8826
  1.816  64.9108
  1.814  64.7389
  1.812  64.8523
  1.810  64.9449
  1.808  64.8928
  1.806  64.7095
  1.804  64.7115
  1.802  64.7971
  1.800  64.8117
  1.798  64.9097
  1.796  64.7444
  1.794  64.8754
  1.792  64.7607
  1.790  64.7964
  1.788  64.9285
  1.786  64.7306
  1.784  64.9787
  1.782  64.8764
  1.780  64.7464
  1.778  64.8387
  1.776  64.7851
  1.774  64.8943
  1.772  64.9669
  1.770  64.8045
  1.768  64.7087
  1.766  64.9451
  1.764  64.7922
  1.762  64.7826
  1.760  64.7762
  1.758  64.9185
  1.756  64.7383
  1.754  65.0539
  1.752  64.8642
  1.750  65.0653
  1.748  65.0769
  1.746  64.9107
  1.744  65.2576
  1.742  65.2179
  1.740  65.2608
  1.738  65.2217
  1.736  65.2997
  1.734  65.4379
  1.732  65.4804
  1.730  65.5942
  1.728  65.7606
  1.726  65.6532
  1.724  65.7346
  1.722  65.7940
  1.720  65.9157
  1.718  65.7413
  1.716  65.8192
  1.714  66.0790
  1.712  66.1839
  1.710  66.1210
  1.708  66.1241
  1.706  66.2702
  1.704  66.2748
  1.702  66.2210
  1.700  66.3888
  1.698  66.3259
  1.696  66.4388
  1.694  66.3850
  1.692  66.3466
  1.690  66.2324
  1.688  66.4314
  1.686  66.4848
  1.684  66.4417
  1.682  66.5111
  1.680  66.7202
  1.678  66.6662
  1.676  66.7559
  1.674  66.7073
  1.672  66.7463
  1.670  66.8413
  1.668  66.8760
  1.666  66.8695
  1.664  67.0310
  1.662  67.0919
  1.660  67.2406
  1.658  67.3181
  1.656  67.3826
  1.654  67.3056
  1.652  67.3625
  1.650  67.4696
  1.648  67.4323
  1.646  67.4201
  1.644  67.3499
  1.642  67.4149
  1.640  67.5837
  1.638  67.5925
  1.636  67.4215
  1.634  67.5132
  1.632  67.6659
  1.630  67.5774
  1.628  67.6573
  1.626  67.6504
  1.624  67.6495
  1.622  67.6583
  1.620  67.5857
  1.618  67.5360
  1.616  67.6395
  1.614  67.7600
  1.612  67.7843
  1.610  67.8583
  1.608  67.7609
  1.606  67.7575
  1.604  67.8379
  1.602  67.7395
  1.600  67.6047
  1.598  67.6999
  1.596  67.7007
  1.594  67.7150
  1.592  67.6853
  1.590  67.6461
  1.588  67.7781
  1.586  67.6958
  1.584  67.6139
  1.582  67.6503
  1.580  67.6708
  1.578  67.5427
  1.576  67.5759
  1.574  67.6354
  1.572  67.5392
  1.570  67.3963
  1.568  67.3352
  1.566  67.3932
  1.564  67.3550
  1.562  67.2428
  1.560  67.1946
  1.558  67.1569
  1.556  67.0880
  1.554  67.0504
  1.552  66.8599
  1.550  66.7405
  1.548  66.7615
  1.546  66.7200
  1.544  66.6186
  1.542  66.6107
  1.540  66.5954
  1.538  66.5273
  1.536  66.3914
  1.534  66.1509
  1.532  66.0871
  1.530  66.2210
  1.528  66.2398
  1.526  66.2101
  1.524  66.0684
  1.522  66.0237
  1.520  65.9998
  1.518  65.9650
  1.516  65.9086
  1.514  65.9334
  1.512  65.8406
  1.510  65.8347
  1.508  65.7325
  1.506  65.6606
  1.504  65.5521
  1.502  65.6269
  1.500  65.7677
  1.498  65.7303
  1.496  65.6103
  1.494  65.6747
  1.492  65.7313
  1.490  65.6948
  1.488  65.7388
  1.486  65.6110
  1.484  65.5892
  1.482  65.8104
  1.480  65.7284
  1.478  65.5663
  1.476  65.6060
  1.474  65.7638
  1.472  65.7065
  1.470  65.8255
  1.468  65.7654
  1.466  65.9450
  1.464  65.9764
  1.462  65.9729
  1.460  66.1238
  1.458  66.2512
  1.456  66.3199
  1.454  66.2816
  1.452  66.4209
  1.450  66.4319
  1.448  66.5243
  1.446  66.8036
  1.444  66.7613
  1.442  66.8084
  1.440  67.0756
  1.438  67.2010
  1.436  67.2787
  1.434  67.4573
  1.432  67.6441
  1.430  67.7205
  1.428  67.8525
  1.426  68.0668
  1.424  68.3791
  1.422  68.5793
  1.420  68.5558
  1.418  68.5982
  1.416  68.7926
  1.414  69.0719
  1.412  69.1944
  1.410  69.4039
  1.408  69.6977
  1.406  69.8067
  1.404  70.0092
  1.402  70.1741
  1.400  70.4972
  1.398  70.5545
  1.396  70.8836
  1.394  71.0152
  1.392  71.1359
  1.390  71.2858
  1.388  71.1680
  1.386  71.2344
  1.384  71.4381
  1.382  71.5516
  1.380  71.7179
  1.378  71.6944
  1.376  71.6316
  1.374  71.6980
  1.372  71.9036
  1.370  71.8285
  1.368  71.8945
  1.366  71.9675
  1.364  71.9218
  1.362  71.8149
  1.360  71.7970
  1.358  71.9568
  1.356  71.8998
  1.354  71.9480
  1.352  71.9216
  1.350  71.9903
  1.348  71.6760
  1.346  71.9428
  1.344  72.0704
  1.342  72.1506
  1.340  72.1628
  1.338  72.2125
  1.336  72.2211
  1.334  71.9854
  1.332  72.1837
  1.330  72.1811
  1.328  72.2980
  1.326  72.2921
  1.324  72.3548
  1.322  72.2867
  1.320  72.3628
  1.318  72.3900
  1.316  72.4917
  1.314  72.4111
  1.312  72.2703
  1.310  72.2200
  1.308  72.6155
  1.306  72.4944
  1.304  72.3787
  1.302  72.3049
  1.300  72.5044
  1.298  72.4536
  1.296  72.4570
  1.294  72.3802
  1.292  72.6524
  1.290  72.5194
  1.288  72.4509
  1.286  72.4959
  1.284  72.4702
  1.282  72.2707
  1.280  72.4571
  1.278  72.3600
  1.276  72.4411
  1.274  72.3267
  1.272  72.4224
  1.270  72.4387
  1.268  72.5944
  1.266  72.4817
  1.264  72.5701
  1.262  72.2123
  1.260  72.2565
  1.258  72.4411
  1.256  72.6949
  1.254  72.3550
  1.252  72.2238
  1.250  72.2373
  1.248  72.5096
  1.246  72.4045
  1.244  72.3253
  1.242  72.2156
  1.240  72.4634
  1.238  72.3039
  1.236  72.1010
  1.234  72.3071
  1.232  72.0880
  1.230  72.3731
  1.228  72.4338
  1.226  72.2461
  1.224  72.3163
  1.222  72.3362
  1.220  72.3754
  1.218  72.4313
  1.216  72.4315
  1.214  72.3167
  1.212  72.2312
  1.210  72.2013
  1.208  72.2397
  1.206  72.0729
  1.204  72.1916
  1.202  72.2577
  1.200  72.1298
  1.198  72.1841
  1.196  72.2772
  1.194  72.1450
  1.192  72.0943
  1.190  72.1614
  1.188  72.2107
  1.186  72.3342
  1.184  72.2068
  1.182  72.1314
  1.180  72.3424
  1.178  72.2916
  1.176  72.3487
  1.174  72.2329
  1.172  72.1895
  1.170  72.3522
  1.168  72.3428
  1.166  72.3826
  1.164  72.3990
  1.162  72.4025
  1.160  72.3415
  1.158  72.2615
  1.156  72.3031
  1.154  72.4850
  1.152  72.4283
  1.150  72.5381
  1.148  72.4513
  1.146  72.4587
  1.144  72.4948
  1.142  72.3682
  1.140  72.5545
  1.138  72.6053
  1.136  72.4679
  1.134  72.4121
  1.132  72.4081
  1.130  72.5712
  1.128  72.5473
  1.126  72.4061
  1.124  72.5497
  1.122  72.5697
  1.120  72.6894
  1.118  72.5907
  1.116  72.5886
  1.114  72.5644
  1.112  72.5626
  1.110  72.6535
  1.108  72.5259
  1.106  72.2830
  1.104  72.4215
  1.102  72.4640
  1.100  72.4098
  1.098  72.4271
  1.096  72.4530
  1.094  72.4110
  1.092  72.3862
  1.090  72.3525
  1.088  72.3490
  1.086  72.4882
  1.084  72.4065
  1.082  72.4231
  1.080  72.4260
  1.078  72.3454
  1.076  72.4227
  1.074  72.4839
  1.072  72.2998
  1.070  72.4214
  1.068  72.1650
  1.066  72.2350
  1.064  72.2926
  1.062  72.2085
  1.060  72.1868
  1.058  72.2867
  1.056  72.3571
  1.054  72.1513
  1.052  72.2871
  1.050  72.2506
  1.048  72.2730
  1.046  72.2245
  1.044  72.2286
  1.042  72.2103
  1.040  72.1322
  1.038  72.0598
  1.036  72.1853
  1.034  72.2574
  1.032  72.1136
  1.030  72.0576
  1.028  72.1413
  1.026  72.1946
  1.024  72.0435
  1.022  72.0825
  1.020  72.0005
  1.018  71.9905
  1.016  72.0657
  1.014  71.9924
  1.012  72.1112
  1.010  72.0130
  1.008  71.9342
  1.006  72.0594
  1.004  72.0229
  1.002  72.0841
  1.000  72.1764
  0.998  72.1801
  0.996  72.1460
  0.994  72.1060
  0.992  72.0898
  0.990  72.0013
  0.988  71.8520
  0.986  72.0536
  0.984  72.0649
  0.982  71.9372
  0.980  72.0264
  0.978  72.0672
  0.976  71.9354
  0.974  71.9450
  0.972  71.9826
  0.970  71.9759
  0.968  71.8981
  0.966  71.9260
  0.964  72.0154
  0.962  71.9713
  0.960  71.9614
  0.958  72.0071
  0.956  71.8677
  0.954  71.9093
  0.952  71.9146
  0.950  71.9475
  0.948  72.0484
  0.946  71.9351
  0.944  71.8713
  0.942  71.9565
  0.940  71.9203
  0.938  72.0030
  0.936  71.9641
  0.934  72.0090
  0.932  72.0449
  0.930  71.9961
  0.928  71.8837
  0.926  71.7353
  0.924  71.8362
  0.922  71.7124
  0.920  71.7295
  0.918  71.8531
  0.916  71.7815
  0.914  71.8379
  0.912  71.9055
  0.910  71.8973
  0.908  71.7502
  0.906  71.7109
  0.904  71.8834
  0.902  71.8337
  0.900  71.9147
  0.898  72.0480
  0.896  72.0180
  0.894  71.8123
  0.892  71.9423
  0.890  71.8998
  0.888  71.7208
  0.886  71.6691
  0.884  71.7145
  0.882  72.0842
  0.880  72.0095
  0.878  71.8686
  0.876  71.7555
  0.874  71.7206
  0.872  71.5444
  0.870  71.6281
  0.868  71.6847
  0.866  71.6853
  0.864  71.5990
  0.862  71.7209
  0.860  71.9646
  0.858  71.7425
  0.856  71.7274
  0.854  71.7665
  0.852  71.7936
  0.850  71.7094
  0.848  71.7462
  0.846  71.7254
  0.844  71.6510
  0.842  71.6264
  0.840  71.6672
  0.838  71.6739
  0.836  71.6539
  0.834  71.6043
  0.832  71.5299
  0.830  71.6238
  0.828  71.5754
  0.826  71.4782
  0.824  71.5346
  0.822  71.5479
  0.820  71.5046
  0.818  71.4818
  0.816  71.4745
  0.814  71.4964
  0.812  71.4460
  0.810  71.4354
  0.808  71.4881
  0.806  71.4865
  0.804  71.4592
  0.802  71.4569
  0.800  71.4284
  0.798  71.4135
  0.796  71.4069
  0.794  71.3949
  0.792  71.4036
  0.790  71.4118
  0.788  71.3921
  0.786  71.3385
  0.784  71.3601
  0.782  71.3300
  0.780  71.3101
  0.778  71.2966
  0.776  71.2966
  0.774  71.2866
  0.772  71.2556
  0.770  71.2485
  0.768  71.2144
  0.766  71.1925
  0.764  71.1789
  0.762  71.1854
  0.760  71.1521
  0.758  71.1647
  0.756  71.1330
  0.754  71.1036
  0.752  71.0949
  0.750  71.0845
  0.748  71.0402
  0.746  71.0426
  0.744  71.0039
  0.742  71.0325
  0.740  70.9907
  0.738  70.9624
  0.736  70.9616
  0.734  70.9153
  0.732  70.8700
  0.730  70.8658
  0.728  70.8198
  0.726  70.8197
  0.724  70.8336
  0.722  70.7764
  0.720  70.7807
  0.718  70.7448
  0.716  70.6997
  0.714  70.7042
  0.712  70.6695
  0.710  70.6133
  0.708  70.5914
  0.706  70.5342
  0.704  70.5591
  0.702  70.5441
  0.700  70.5077
  0.698  70.5026
  0.696  70.4392
  0.694  70.3795
  0.692  70.3596
  0.690  70.3368
  0.688  70.3297
  0.686  70.2843
  0.684  70.2505
  0.682  70.2052
  0.680  70.1467
  0.678  70.1414
  0.676  70.1110
  0.674  70.0929
  0.672  70.0516
  0.670  70.0114
  0.668  70.0065
  0.666  69.9867
  0.664  69.9106
  0.662  69.8917
  0.660  69.8281
  0.658  69.7920
  0.656  69.7345
  0.654  69.7055
  0.652  69.6605
  0.650  69.6315
  0.648  69.6281
  0.646  69.6099
  0.644  69.5872
  0.642  69.5331
  0.640  69.5230
  0.638  69.4882
  0.636  69.4083
  0.634  69.3844
  0.632  69.3485
  0.630  69.3131
  0.628  69.2925
  0.626  69.2040
  0.624  69.1538
  0.622  69.1010
  0.620  69.0783
  0.618  69.0269
  0.616  68.9918
  0.614  68.9161
  0.612  68.8742
  0.610  68.8174
  0.608  68.7763
  0.606  68.7264
  0.604  68.6915
  0.602  68.6155
  0.600  68.5509
  0.598  68.4890
  0.596  68.4296
  0.594  68.3477
  0.592  68.3079
  0.590  68.2164
  0.588  68.1412
  0.586  68.0557
  0.584  67.9867
  0.582  67.8951
  0.580  67.8443
  0.578  67.7698
  0.576  67.6812
  0.574  67.5813
  0.572  67.4913
  0.570  67.4171
  0.568  67.3239
  0.566  67.2439
  0.564  67.1623
  0.562  67.0848
  0.560  66.9794
  0.558  66.8745
  0.556  66.7601
  0.554  66.6661
  0.552  66.5402
  0.550  66.4343
  0.548  66.3453
  0.546  66.2734
  0.544  66.1788
  0.542  66.0931
  0.540  65.9692
  0.538  65.8414
  0.536  65.7461
  0.534  65.6554
  0.532  65.5571
  0.530  65.4362
  0.528  65.3217
  0.526  65.2053
  0.524  65.1016
  0.522  64.9817
  0.520  64.8807
  0.518  64.7745
  0.516  64.6706
  0.514  64.5573
  0.512  64.4324
  0.510  64.3221
  0.508  64.2285
  0.506  64.1398
  0.504  64.0143
  0.502  63.8979
  0.500  63.7954
  0.498  63.6832
  0.496  63.5775
  0.494  63.4756
  0.492  63.3453
  0.490  63.2428
  0.488  63.1285
  0.486  62.9908
  0.484  62.8550
  0.482  62.7266
  0.480  62.6197
  0.478  62.5279
  0.476  62.4138
  0.474  62.2887
  0.472  62.1666
  0.470  62.0512
  0.468  61.9292
  0.466  61.8235
  0.464  61.7259
  0.462  61.6046
  0.460  61.4986
  0.458  61.3939
  0.456  61.2563
  0.454  61.1364
  0.452  61.0291
  0.450  60.8751
  0.448  60.7524
  0.446  60.5892
  0.444  60.4300
  0.442  60.2911
  0.440  60.1520
  0.438  59.9929
  0.436  59.8581
  0.434  59.7209
  0.432  59.5716
  0.430  59.4167
  0.428  59.2632
  0.426  59.0813
  0.424  58.9558
  0.422  58.7884
  0.420  58.6489
  0.418  58.4863
  0.416  58.3454
  0.414  58.1983
  0.412  58.0534
  0.410  57.9251
  0.408  57.7749
  0.406  57.6357
  0.404  57.5185
  0.402  57.3834
  0.400  57.2469
