Name: Trona Na3(CO)(HCO3) * 2H2O
Type: Mineral
Class: Carbonate
Subclass: None
Particle Size: Unsieved coarse powder
Sample No.: None
Owner: USGS
Wavelength range: 0.40 - 14.05 um
Origin: Green River Formation, Wyoming

Description: Trona, from the Green River Formation, Wyoming





Measurement: Directional Hemispherical Reflectance
First Column: X
Second Column: Y
X Units: Wavelength (micrometers)
Y Units: Reflectance (percent)
First X Value: 14.05105
Last X Value: 0.40000
Number of X Values: 2756
Additional Information: None

 14.051   1.3081
 14.013   1.2360
 13.975   1.3390
 13.938   1.2257
 13.900   1.2772
 13.863   1.3493
 13.826   1.4317
 13.790   1.3390
 13.753   1.3287
 13.717   1.3287
 13.680   1.4008
 13.644   1.3184
 13.609   1.4832
 13.573   1.5553
 13.538   1.6068
 13.502   1.5862
 13.467   1.6171
 13.432   1.5656
 13.398   1.6583
 13.363   1.6686
 13.329   1.7613
 13.295   1.7098
 13.261   1.7407
 13.227   1.7407
 13.193   1.8231
 13.160   1.8025
 13.126   1.8952
 13.093   1.9055
 13.060   1.9055
 13.027   1.9055
 12.995   2.0188
 12.962   1.9982
 12.930   2.0085
 12.898   1.9776
 12.866   2.0291
 12.834   2.0085
 12.802   2.0806
 12.771   2.0806
 12.739   2.1218
 12.708   2.1012
 12.677   2.1836
 12.646   2.1321
 12.616   2.1630
 12.585   2.1939
 12.554   2.1939
 12.524   2.0909
 12.494   2.1527
 12.464   2.2351
 12.434   2.2866
 12.404   2.1424
 12.375   2.1115
 12.345   2.0703
 12.316   2.0909
 12.287   2.1115
 12.258   2.1836
 12.229   2.1733
 12.200   2.2145
 12.171   2.2042
 12.143   2.2969
 12.115   2.2763
 12.086   2.2763
 12.058   2.2763
 12.030   2.3793
 12.002   2.4205
 11.975   2.5029
 11.947   2.5029
 11.920   2.6162
 11.892   2.6986
 11.865   2.9149
 11.838   3.1312
 11.811   3.6256
 11.784   4.3981
 11.757   5.5105
 11.731   6.4890
 11.704   6.8907
 11.678   6.5302
 11.652   5.8401
 11.626   4.9337
 11.600   4.1406
 11.574   3.5329
 11.548   3.1621
 11.522   2.8325
 11.497   2.6780
 11.471   2.5029
 11.446   2.4308
 11.421   2.3690
 11.396   2.3381
 11.371   2.1939
 11.346   2.1836
 11.321   2.1424
 11.297   2.1012
 11.272   2.0394
 11.248   2.1218
 11.223   2.0600
 11.199   2.0806
 11.175   2.0806
 11.151   2.0909
 11.127   2.0394
 11.103   2.0497
 11.079   2.0291
 11.056   2.0909
 11.032   2.0600
 11.009   2.0394
 10.985   2.0188
 10.962   2.1012
 10.939   2.0497
 10.916   2.0394
 10.893   2.0085
 10.870   2.0600
 10.848   2.0394
 10.825   2.0703
 10.802   2.1012
 10.780   2.1424
 10.758   2.0497
 10.735   2.0806
 10.713   2.0497
 10.691   2.0806
 10.669   2.0909
 10.647   2.0909
 10.625   2.0291
 10.604   2.0909
 10.582   2.0703
 10.560   2.0806
 10.539   2.0600
 10.518   2.1115
 10.496   2.0909
 10.475   2.0909
 10.454   2.0806
 10.433   2.1424
 10.412   2.1321
 10.391   2.1939
 10.370   2.1424
 10.350   2.1630
 10.329   2.1218
 10.309   2.1321
 10.288   2.0703
 10.268   2.1115
 10.247   2.1527
 10.227   2.2042
 10.207   2.1733
 10.187   2.1939
 10.167   2.1630
 10.147   2.1733
 10.127   2.1115
 10.108   2.1424
 10.088   2.1527
 10.068   2.1733
 10.049   2.1424
 10.029   2.2042
 10.010   2.1939
  9.991   2.1733
  9.972   2.1321
  9.952   2.1836
  9.933   2.2042
  9.914   2.2660
  9.895   2.2042
  9.877   2.2042
  9.858   2.2248
  9.839   2.2351
  9.821   2.2145
  9.802   2.2763
  9.783   2.2248
  9.765   2.2042
  9.747   2.1733
  9.728   2.1836
  9.710   2.1527
  9.692   2.2248
  9.674   2.1836
  9.656   2.1321
  9.638   2.0600
  9.620   2.0497
  9.602   2.0188
  9.585   2.0291
  9.567   1.9261
  9.549   1.8437
  9.532   1.6480
  9.514   1.6480
  9.497   1.8437
  9.479   2.0703
  9.462   2.2248
  9.445   2.3175
  9.428   2.2557
  9.411   2.2763
  9.394   2.2969
  9.377   2.3278
  9.360   2.3484
  9.343   2.3381
  9.326   2.2557
  9.309   2.2763
  9.293   2.2248
  9.276   2.2248
  9.259   2.2248
  9.243   2.2866
  9.226   2.2660
  9.210   2.3072
  9.194   2.2866
  9.178   2.2969
  9.161   2.2660
  9.145   2.3072
  9.129   2.3072
  9.113   2.2969
  9.097   2.1939
  9.081   2.1630
  9.065   2.1836
  9.049   2.2145
  9.034   2.2145
  9.018   2.2660
  9.002   2.2248
  8.987   2.1836
  8.971   2.1836
  8.956   2.2557
  8.940   2.2969
  8.925   2.2763
  8.909   2.1836
  8.894   2.2557
  8.879   2.2351
  8.864   2.2248
  8.849   2.1733
  8.834   2.1836
  8.819   2.1630
  8.804   2.2042
  8.789   2.1836
  8.774   2.1836
  8.759   2.1939
  8.744   2.2145
  8.730   2.1836
  8.715   2.2454
  8.700   2.2557
  8.686   2.2454
  8.671   2.1733
  8.657   2.1424
  8.642   2.1115
  8.628   2.1733
  8.614   2.2145
  8.599   2.2454
  8.585   2.1527
  8.571   2.1424
  8.557   2.1424
  8.543   2.1836
  8.529   2.1733
  8.515   2.2145
  8.501   2.2351
  8.487   2.2969
  8.473   2.3072
  8.459   2.3381
  8.445   2.3072
  8.431   2.2763
  8.418   2.2660
  8.404   2.3072
  8.391   2.3072
  8.377   2.3690
  8.363   2.3896
  8.350   2.3896
  8.337   2.3278
  8.323   2.3278
  8.310   2.2969
  8.297   2.2866
  8.283   2.2763
  8.270   2.3072
  8.257   2.2557
  8.244   2.2248
  8.231   2.2351
  8.218   2.2763
  8.205   2.2248
  8.192   2.2042
  8.179   2.1630
  8.166   2.1836
  8.153   2.1630
  8.140   2.1218
  8.128   2.0909
  8.115   2.1115
  8.102   2.0497
  8.090   2.0497
  8.077   2.0600
  8.064   2.0806
  8.052   2.0085
  8.039   1.9776
  8.027   2.0085
  8.015   2.0188
  8.002   1.9879
  7.990   1.9879
  7.978   1.9261
  7.965   1.9158
  7.953   1.8437
  7.941   1.8128
  7.929   1.7819
  7.917   1.8437
  7.905   1.8437
  7.893   1.8437
  7.881   1.8128
  7.869   1.8128
  7.857   1.7716
  7.845   1.7613
  7.833   1.7201
  7.821   1.6892
  7.809   1.6583
  7.798   1.6789
  7.786   1.6686
  7.774   1.6789
  7.763   1.6377
  7.751   1.6274
  7.739   1.6068
  7.728   1.6068
  7.716   1.5656
  7.705   1.5965
  7.694   1.5759
  7.682   1.5759
  7.671   1.5450
  7.659   1.5759
  7.648   1.5656
  7.637   1.6068
  7.626   1.5759
  7.614   1.5450
  7.603   1.5244
  7.592   1.5141
  7.581   1.5244
  7.570   1.5553
  7.559   1.5347
  7.548   1.5347
  7.537   1.5244
  7.526   1.5450
  7.515   1.4935
  7.504   1.4523
  7.493   1.4523
  7.483   1.4935
  7.472   1.4832
  7.461   1.4626
  7.450   1.4317
  7.440   1.4626
  7.429   1.4626
  7.418   1.4626
  7.408   1.4008
  7.397   1.4317
  7.387   1.4420
  7.376   1.4626
  7.366   1.4523
  7.355   1.4523
  7.345   1.3802
  7.334   1.3596
  7.324   1.3699
  7.314   1.3699
  7.303   1.3390
  7.293   1.4008
  7.283   1.4008
  7.273   1.3699
  7.263   1.3390
  7.252   1.3596
  7.242   1.3596
  7.232   1.3699
  7.222   1.3596
  7.212   1.3493
  7.202   1.3390
  7.192   1.3287
  7.182   1.2978
  7.172   1.3287
  7.162   1.3390
  7.152   1.3184
  7.143   1.2772
  7.133   1.3081
  7.123   1.3184
  7.113   1.3287
  7.103   1.2669
  7.094   1.2772
  7.084   1.2875
  7.074   1.3081
  7.065   1.3081
  7.055   1.3390
  7.046   1.3390
  7.036   1.3596
  7.026   1.3184
  7.017   1.3390
  7.007   1.3287
  6.998   1.3390
  6.989   1.3493
  6.979   1.3596
  6.970   1.3802
  6.960   1.4626
  6.951   1.5038
  6.942   1.5038
  6.932   1.4832
  6.923   1.5038
  6.914   1.5347
  6.905   1.6171
  6.896   1.6789
  6.886   1.6789
  6.877   1.6686
  6.868   1.7407
  6.859   1.8643
  6.850   1.9673
  6.841   1.9570
  6.832   1.9467
  6.823   1.9776
  6.814   2.0600
  6.805   2.1115
  6.796   2.1939
  6.787   2.2866
  6.778   2.3175
  6.770   2.2763
  6.761   2.2763
  6.752   2.2660
  6.743   2.2454
  6.734   2.2248
  6.726   2.2351
  6.717   2.1733
  6.708   2.1218
  6.700   1.9982
  6.691   1.9467
  6.682   1.9055
  6.674   1.8643
  6.665   1.6995
  6.657   1.5553
  6.648   1.4729
  6.640   1.4729
  6.631   1.4111
  6.623   1.2566
  6.614   1.1639
  6.606   1.1433
  6.597   1.1021
  6.589   1.0815
  6.581   1.0300
  6.572   1.0403
  6.564   1.0197
  6.556   0.9888
  6.547   0.9476
  6.539   0.8858
  6.531   0.8652
  6.523   0.8961
  6.514   0.8652
  6.506   0.8652
  6.498   0.8446
  6.490   0.8755
  6.482   0.8755
  6.474   0.8549
  6.466   0.8034
  6.458   0.8137
  6.450   0.8240
  6.442   0.8034
  6.434   0.7725
  6.426   0.7725
  6.418   0.7725
  6.410   0.8240
  6.402   0.7725
  6.394   0.7519
  6.386   0.7725
  6.378   0.7828
  6.370   0.7622
  6.363   0.7828
  6.355   0.7519
  6.347   0.7622
  6.339   0.7725
  6.332   0.7828
  6.324   0.7828
  6.316   0.7725
  6.308   0.7416
  6.301   0.7519
  6.293   0.7828
  6.286   0.8137
  6.278   0.8240
  6.270   0.8240
  6.263   0.8343
  6.255   0.8446
  6.248   0.8652
  6.240   0.8652
  6.233   0.8343
  6.225   0.8240
  6.218   0.8240
  6.210   0.8549
  6.203   0.8446
  6.195   0.8652
  6.188   0.8961
  6.181   0.9373
  6.173   0.9373
  6.166   0.9270
  6.159   0.9064
  6.151   0.9270
  6.144   0.9064
  6.137   0.9270
  6.130   0.9270
  6.122   0.9373
  6.115   0.9785
  6.108   1.0403
  6.101   1.0094
  6.094   1.0197
  6.086   1.0197
  6.079   1.0094
  6.072   0.9991
  6.065   1.0300
  6.058   1.0197
  6.051   0.9888
  6.044   1.0506
  6.037   1.0609
  6.030   1.0197
  6.023   1.0712
  6.016   1.0918
  6.009   1.0918
  6.002   1.0815
  5.995   1.0815
  5.988   1.1021
  5.981   1.1227
  5.974   1.1330
  5.967   1.1536
  5.960   1.1742
  5.954   1.1948
  5.947   1.1948
  5.940   1.2257
  5.933   1.2463
  5.926   1.2566
  5.920   1.2566
  5.913   1.2669
  5.906   1.2360
  5.899   1.2463
  5.893   1.2978
  5.886   1.3081
  5.879   1.3184
  5.873   1.3390
  5.866   1.2669
  5.859   1.2566
  5.853   1.2772
  5.846   1.2978
  5.840   1.2669
  5.833   1.2772
  5.827   1.2978
  5.820   1.3081
  5.813   1.2978
  5.807   1.2772
  5.800   1.2360
  5.794   1.2154
  5.788   1.1845
  5.781   1.1742
  5.775   1.1536
  5.768   1.1639
  5.762   1.1742
  5.755   1.1433
  5.749   1.1021
  5.743   1.1433
  5.736   1.1536
  5.730   1.1227
  5.724   1.0712
  5.717   1.0609
  5.711   1.0403
  5.705   1.0506
  5.698   1.0403
  5.692   1.0300
  5.686   0.9991
  5.680   0.9785
  5.674   0.9888
  5.667   0.9888
  5.661   0.9888
  5.655   0.9682
  5.649   0.9579
  5.643   0.9888
  5.637   0.9785
  5.630   0.9167
  5.624   0.8755
  5.618   0.9064
  5.612   0.9270
  5.606   0.9270
  5.600   0.9270
  5.594   0.9167
  5.588   0.9167
  5.582   0.9373
  5.576   0.9373
  5.570   0.9270
  5.564   0.8961
  5.558   0.8961
  5.552   0.8961
  5.546   0.8961
  5.540   0.8858
  5.534   0.8858
  5.528   0.8961
  5.523   0.8961
  5.517   0.8858
  5.511   0.8549
  5.505   0.8240
  5.499   0.8446
  5.493   0.8652
  5.487   0.8858
  5.482   0.8961
  5.476   0.8961
  5.470   0.8858
  5.464   0.9064
  5.459   0.9270
  5.453   0.9167
  5.447   0.8858
  5.441   0.8755
  5.436   0.8961
  5.430   0.9373
  5.424   0.9167
  5.419   0.8961
  5.413   0.9064
  5.407   0.8858
  5.402   0.8961
  5.396   0.9270
  5.390   0.9373
  5.385   0.9270
  5.379   0.9167
  5.374   0.9373
  5.368   0.9476
  5.363   0.9476
  5.357   0.9373
  5.352   0.9373
  5.346   0.9270
  5.341   0.9476
  5.335   0.9579
  5.330   0.9373
  5.324   0.9270
  5.319   0.9476
  5.313   0.9579
  5.308   0.9579
  5.302   0.9373
  5.297   0.9373
  5.291   0.9785
  5.286   0.9785
  5.281   0.9476
  5.275   0.9682
  5.270   0.9682
  5.265   0.9888
  5.259   0.9785
  5.254   0.9785
  5.249   0.9888
  5.243   1.0094
  5.238   0.9888
  5.233   0.9785
  5.227   0.9888
  5.222   1.0300
  5.217   1.0197
  5.212   1.0197
  5.206   1.0300
  5.201   1.0403
  5.196   1.0094
  5.191   1.0094
  5.186   1.0300
  5.180   1.0300
  5.175   1.0197
  5.170   1.0094
  5.165   1.0197
  5.160   1.0300
  5.155   1.0403
  5.150   1.0506
  5.145   1.0403
  5.139   1.0609
  5.134   1.0506
  5.129   1.0609
  5.124   1.0609
  5.119   1.0815
  5.114   1.0712
  5.109   1.0609
  5.104   1.0609
  5.099   1.0815
  5.094   1.0712
  5.089   1.1021
  5.084   1.1227
  5.079   1.1433
  5.074   1.1227
  5.069   1.1124
  5.064   1.0918
  5.059   1.0815
  5.054   1.0918
  5.049   1.1021
  5.044   1.1227
  5.040   1.1433
  5.035   1.1227
  5.030   1.1021
  5.025   1.1227
  5.020   1.1433
  5.015   1.1433
  5.010   1.1330
  5.005   1.1330
  5.001   1.1433
  4.996   1.1227
  4.991   1.1227
  4.986   1.1433
  4.981   1.1948
  4.977   1.1742
  4.972   1.1433
  4.967   1.1639
  4.962   1.1948
  4.958   1.1845
  4.953   1.1845
  4.948   1.1845
  4.943   1.1948
  4.939   1.2154
  4.934   1.2154
  4.929   1.2051
  4.925   1.2051
  4.920   1.1948
  4.915   1.2154
  4.911   1.2463
  4.906   1.2360
  4.901   1.2257
  4.897   1.2463
  4.892   1.2566
  4.888   1.2669
  4.883   1.2463
  4.878   1.2360
  4.874   1.2463
  4.869   1.2463
  4.865   1.2154
  4.860   1.2257
  4.856   1.2669
  4.851   1.2875
  4.846   1.2772
  4.842   1.2566
  4.837   1.2463
  4.833   1.2669
  4.828   1.3390
  4.824   1.3390
  4.819   1.3081
  4.815   1.2875
  4.810   1.2875
  4.806   1.3184
  4.802   1.3287
  4.797   1.3081
  4.793   1.3184
  4.788   1.3390
  4.784   1.3287
  4.779   1.3081
  4.775   1.3081
  4.771   1.3184
  4.766   1.3493
  4.762   1.3493
  4.758   1.3493
  4.753   1.3287
  4.749   1.3287
  4.744   1.3699
  4.740   1.3699
  4.736   1.3596
  4.731   1.3493
  4.727   1.3493
  4.723   1.4111
  4.719   1.4523
  4.714   1.4111
  4.710   1.3699
  4.706   1.3905
  4.701   1.4214
  4.697   1.4317
  4.693   1.4832
  4.689   1.4729
  4.684   1.4317
  4.680   1.4420
  4.676   1.4832
  4.672   1.4935
  4.668   1.4935
  4.663   1.5038
  4.659   1.4935
  4.655   1.4420
  4.651   1.4214
  4.647   1.4317
  4.643   1.4832
  4.638   1.4729
  4.634   1.4626
  4.630   1.5141
  4.626   1.5141
  4.622   1.4832
  4.618   1.4832
  4.614   1.4935
  4.610   1.4832
  4.605   1.4729
  4.601   1.5244
  4.597   1.5347
  4.593   1.4935
  4.589   1.4729
  4.585   1.4832
  4.581   1.5141
  4.577   1.5347
  4.573   1.5553
  4.569   1.5450
  4.565   1.5244
  4.561   1.5347
  4.557   1.5244
  4.553   1.5141
  4.549   1.5141
  4.545   1.5553
  4.541   1.5656
  4.537   1.5347
  4.533   1.5038
  4.529   1.4935
  4.525   1.4935
  4.521   1.4729
  4.517   1.4832
  4.513   1.5347
  4.509   1.5656
  4.505   1.5347
  4.502   1.4729
  4.498   1.4523
  4.494   1.4523
  4.490   1.4832
  4.486   1.5038
  4.482   1.4523
  4.478   1.4729
  4.474   1.5038
  4.470   1.4832
  4.467   1.4832
  4.463   1.4832
  4.459   1.4832
  4.455   1.4729
  4.451   1.4729
  4.447   1.4214
  4.444   1.4111
  4.440   1.4214
  4.436   1.4008
  4.432   1.4111
  4.428   1.4214
  4.425   1.4214
  4.421   1.4420
  4.417   1.4832
  4.413   1.4626
  4.410   1.4008
  4.406   1.3802
  4.402   1.4214
  4.398   1.4420
  4.395   1.4523
  4.391   1.4214
  4.387   1.4214
  4.384   1.4317
  4.380   1.4626
  4.376   1.4832
  4.372   1.4317
  4.369   1.3905
  4.365   1.4317
  4.361   1.4214
  4.358   1.4111
  4.354   1.4523
  4.350   1.4214
  4.347   1.4111
  4.343   1.4729
  4.340   1.4729
  4.336   1.4935
  4.332   1.4832
  4.329   1.4214
  4.325   1.4111
  4.321   1.4832
  4.318   1.4935
  4.314   1.5038
  4.311   1.5244
  4.307   1.5347
  4.304   1.5347
  4.300   1.5553
  4.296   1.5553
  4.293   1.5553
  4.289   1.5347
  4.286   1.5141
  4.282   1.5141
  4.279   1.5656
  4.275   1.5965
  4.272   1.6377
  4.268   1.6274
  4.265   1.5862
  4.261   1.5862
  4.258   1.5862
  4.254   1.5759
  4.251   1.5862
  4.247   1.5862
  4.244   1.5759
  4.240   1.5553
  4.237   1.6068
  4.233   1.6686
  4.230   1.6892
  4.226   1.6377
  4.223   1.5862
  4.219   1.5965
  4.216   1.6377
  4.213   1.6480
  4.209   1.6480
  4.206   1.6377
  4.202   1.5862
  4.199   1.5759
  4.196   1.5965
  4.192   1.5656
  4.189   1.5656
  4.185   1.6171
  4.182   1.6686
  4.179   1.6583
  4.175   1.6377
  4.172   1.6171
  4.169   1.6377
  4.165   1.6480
  4.162   1.6171
  4.159   1.6274
  4.155   1.6789
  4.152   1.6789
  4.149   1.6377
  4.145   1.6068
  4.142   1.6377
  4.139   1.6377
  4.135   1.6583
  4.132   1.6686
  4.129   1.6686
  4.126   1.6686
  4.122   1.6583
  4.119   1.6686
  4.116   1.7098
  4.112   1.6892
  4.109   1.6377
  4.106   1.6171
  4.103   1.6377
  4.099   1.6171
  4.096   1.5759
  4.093   1.6377
  4.090   1.6480
  4.086   1.5656
  4.083   1.5759
  4.080   1.6068
  4.077   1.6583
  4.074   1.6686
  4.070   1.6686
  4.067   1.6892
  4.064   1.6686
  4.061   1.6377
  4.058   1.6789
  4.055   1.7098
  4.051   1.6583
  4.048   1.6480
  4.045   1.6995
  4.042   1.7304
  4.039   1.7407
  4.036   1.6686
  4.032   1.6583
  4.029   1.6274
  4.026   1.6686
  4.023   1.7098
  4.020   1.7201
  4.017   1.7201
  4.014   1.7304
  4.011   1.7510
  4.008   1.7716
  4.004   1.7510
  4.001   1.7304
  3.998   1.7304
  3.995   1.7304
  3.992   1.6686
  3.989   1.6583
  3.986   1.6995
  3.983   1.7304
  3.980   1.6892
  3.977   1.6892
  3.974   1.7098
  3.971   1.6995
  3.968   1.6892
  3.965   1.7304
  3.962   1.7098
  3.959   1.6892
  3.956   1.6892
  3.953   1.7201
  3.950   1.7819
  3.947   1.7716
  3.944   1.6789
  3.941   1.6789
  3.938   1.6789
  3.935   1.7098
  3.932   1.7098
  3.929   1.6995
  3.926   1.7098
  3.923   1.7407
  3.920   1.7613
  3.917   1.7304
  3.914   1.6789
  3.911   1.7098
  3.908   1.7098
  3.905   1.7098
  3.902   1.6995
  3.899   1.7304
  3.896   1.7407
  3.893   1.7716
  3.890   1.7716
  3.887   1.7819
  3.884   1.7510
  3.882   1.7304
  3.879   1.7201
  3.876   1.7922
  3.873   1.8746
  3.870   1.8952
  3.867   1.8540
  3.864   1.8437
  3.861   1.7922
  3.858   1.8128
  3.856   1.8437
  3.853   1.8437
  3.850   1.8025
  3.847   1.8437
  3.844   1.8952
  3.841   1.9055
  3.838   1.8540
  3.836   1.8128
  3.833   1.7922
  3.830   1.8334
  3.827   1.8437
  3.824   1.8334
  3.822   1.8437
  3.819   1.8231
  3.816   1.7922
  3.813   1.8437
  3.810   1.8334
  3.807   1.8540
  3.805   1.8643
  3.802   1.9055
  3.799   1.9055
  3.796   1.9158
  3.794   1.8952
  3.791   1.9055
  3.788   1.8540
  3.785   1.8540
  3.782   1.8437
  3.780   1.8746
  3.777   1.8952
  3.774   1.8952
  3.771   1.8849
  3.769   1.9055
  3.766   1.8746
  3.763   1.8231
  3.761   1.8540
  3.758   1.8643
  3.755   1.8437
  3.752   1.8952
  3.750   1.9055
  3.747   1.8334
  3.744   1.8128
  3.742   1.9261
  3.739   1.9570
  3.736   1.9158
  3.733   1.8643
  3.731   1.8334
  3.728   1.8334
  3.725   1.8334
  3.723   1.8128
  3.720   1.8231
  3.717   1.8437
  3.715   1.8231
  3.712   1.8334
  3.709   1.8746
  3.707   1.8128
  3.704   1.8025
  3.702   1.7922
  3.699   1.7716
  3.696   1.7716
  3.694   1.8231
  3.691   1.8540
  3.688   1.8540
  3.686   1.8231
  3.683   1.8334
  3.680   1.7922
  3.678   1.8437
  3.675   1.9055
  3.673   1.8746
  3.670   1.7819
  3.667   1.7922
  3.665   1.8025
  3.662   1.8025
  3.660   1.7510
  3.657   1.7613
  3.655   1.7510
  3.652   1.7510
  3.649   1.7922
  3.647   1.8025
  3.644   1.7819
  3.642   1.8128
  3.639   1.8128
  3.637   1.7819
  3.634   1.7201
  3.632   1.6995
  3.629   1.7201
  3.626   1.7510
  3.624   1.7304
  3.621   1.7716
  3.619   1.7407
  3.616   1.7201
  3.614   1.7201
  3.611   1.6892
  3.609   1.6583
  3.606   1.7098
  3.604   1.6892
  3.601   1.6480
  3.599   1.6377
  3.596   1.6892
  3.594   1.6480
  3.591   1.6274
  3.589   1.6171
  3.586   1.6068
  3.584   1.5862
  3.581   1.5965
  3.579   1.6068
  3.576   1.6274
  3.574   1.5862
  3.571   1.6068
  3.569   1.5965
  3.567   1.5965
  3.564   1.6068
  3.562   1.5862
  3.559   1.6171
  3.557   1.6583
  3.554   1.6480
  3.552   1.6480
  3.549   1.5862
  3.547   1.5656
  3.545   1.5450
  3.542   1.5553
  3.540   1.6171
  3.537   1.5965
  3.535   1.5553
  3.533   1.5862
  3.530   1.5759
  3.528   1.5347
  3.525   1.4832
  3.523   1.5141
  3.521   1.4832
  3.518   1.4729
  3.516   1.5038
  3.513   1.5553
  3.511   1.5141
  3.509   1.4626
  3.506   1.4729
  3.504   1.4832
  3.502   1.4317
  3.499   1.4523
  3.497   1.5038
  3.494   1.5450
  3.492   1.4935
  3.490   1.4832
  3.487   1.4729
  3.485   1.4214
  3.483   1.3905
  3.480   1.4111
  3.478   1.4214
  3.476   1.4317
  3.473   1.4008
  3.471   1.4420
  3.469   1.4214
  3.466   1.3802
  3.464   1.3390
  3.462   1.3699
  3.460   1.4317
  3.457   1.4420
  3.455   1.3802
  3.453   1.3699
  3.450   1.3802
  3.448   1.4111
  3.446   1.4008
  3.443   1.3802
  3.441   1.3905
  3.439   1.4523
  3.437   1.4317
  3.434   1.4214
  3.432   1.4008
  3.430   1.4008
  3.428   1.3802
  3.425   1.3184
  3.423   1.2669
  3.421   1.3390
  3.418   1.3184
  3.416   1.3390
  3.414   1.3184
  3.412   1.2669
  3.409   1.2566
  3.407   1.2772
  3.405   1.2669
  3.403   1.3184
  3.401   1.3390
  3.398   1.3699
  3.396   1.3802
  3.394   1.3596
  3.392   1.2772
  3.389   1.3390
  3.387   1.3905
  3.385   1.3184
  3.383   1.2669
  3.381   1.3081
  3.378   1.3596
  3.376   1.3184
  3.374   1.2772
  3.372   1.3081
  3.370   1.2669
  3.367   1.2566
  3.365   1.2566
  3.363   1.2772
  3.361   1.2978
  3.359   1.3596
  3.357   1.3184
  3.354   1.3184
  3.352   1.2875
  3.350   1.2463
  3.348   1.2360
  3.346   1.2772
  3.344   1.2669
  3.341   1.2669
  3.339   1.2360
  3.337   1.2051
  3.335   1.1845
  3.333   1.1845
  3.331   1.1330
  3.329   1.1639
  3.326   1.2257
  3.324   1.2978
  3.322   1.2875
  3.320   1.2360
  3.318   1.2257
  3.316   1.2566
  3.314   1.2257
  3.312   1.2154
  3.309   1.2051
  3.307   1.2257
  3.305   1.1845
  3.303   1.1639
  3.301   1.1845
  3.299   1.2154
  3.297   1.2257
  3.295   1.2257
  3.293   1.1227
  3.291   1.0918
  3.288   1.0712
  3.286   1.0712
  3.284   1.1124
  3.282   1.1433
  3.280   1.1845
  3.278   1.1948
  3.276   1.1536
  3.274   1.1330
  3.272   1.0712
  3.270   1.0506
  3.268   1.0712
  3.266   1.1639
  3.264   1.1536
  3.262   1.1536
  3.259   1.1124
  3.257   1.0300
  3.255   1.0300
  3.253   1.1124
  3.251   1.1433
  3.249   1.1021
  3.247   1.0300
  3.245   1.0403
  3.243   1.0609
  3.241   1.0815
  3.239   1.0918
  3.237   1.0815
  3.235   1.0094
  3.233   1.0403
  3.231   1.0918
  3.229   1.1124
  3.227   1.0712
  3.225   1.0609
  3.223   0.9991
  3.221   1.0300
  3.219   1.0609
  3.217   1.0300
  3.215   1.0403
  3.213   1.0403
  3.211   1.0403
  3.209   1.0815
  3.207   1.0712
  3.205   1.0300
  3.203   1.0506
  3.201   1.1227
  3.199   1.0609
  3.197   1.0506
  3.195   1.0712
  3.193   1.0815
  3.191   1.0609
  3.189   1.0403
  3.187   1.0094
  3.185   0.9991
  3.183   1.0094
  3.182   1.0197
  3.180   1.0300
  3.178   1.1124
  3.176   1.0712
  3.174   1.0815
  3.172   1.1021
  3.170   1.1124
  3.168   1.0506
  3.166   0.9991
  3.164   1.0506
  3.162   1.0609
  3.160   1.0197
  3.158   1.1124
  3.156   1.1639
  3.154   1.1742
  3.152   1.0918
  3.151   1.0197
  3.149   0.9682
  3.147   1.1227
  3.145   1.1536
  3.143   1.1124
  3.141   1.0918
  3.139   1.0815
  3.137   1.0506
  3.135   1.0403
  3.133   1.0609
  3.132   1.0815
  3.130   1.1021
  3.128   1.0918
  3.126   1.0197
  3.124   1.0403
  3.122   1.0609
  3.120   1.0918
  3.118   1.1021
  3.117   1.0918
  3.115   1.0609
  3.113   1.0609
  3.111   1.0918
  3.109   1.0918
  3.107   0.9888
  3.105   0.9888
  3.103   1.0506
  3.102   1.0609
  3.100   1.0197
  3.098   1.0403
  3.096   0.9991
  3.094   0.9888
  3.092   0.9579
  3.091   1.0918
  3.089   1.1433
  3.087   1.1742
  3.085   1.0712
  3.083   1.0609
  3.081   1.0815
  3.079   1.0609
  3.078   1.0403
  3.076   1.1124
  3.074   1.0918
  3.072   1.0094
  3.070   0.9373
  3.069   1.0609
  3.067   1.0300
  3.065   1.0197
  3.063   1.0609
  3.061   1.1124
  3.060   1.0506
  3.058   1.0609
  3.056   1.0609
  3.054   1.1227
  3.052   1.0712
  3.051   1.0506
  3.049   1.0506
  3.047   1.1227
  3.045   1.1433
  3.043   1.1021
  3.042   1.0403
  3.040   1.0609
  3.038   1.0918
  3.036   1.1845
  3.034   1.1845
  3.033   1.2257
  3.031   1.2051
  3.029   1.1227
  3.027   1.0506
  3.026   1.0506
  3.024   1.0609
  3.022   1.0506
  3.020   1.0506
  3.019   1.1433
  3.017   1.1536
  3.015   1.1948
  3.013   1.0918
  3.012   1.1124
  3.010   1.1845
  3.008   1.2257
  3.006   1.1227
  3.005   1.0403
  3.003   0.9991
  3.001   1.0712
  2.999   1.1227
  2.998   1.1948
  2.996   1.1639
  2.994   1.1639
  2.992   1.1536
  2.991   1.1433
  2.989   1.1124
  2.987   1.1330
  2.986   1.1433
  2.984   1.2051
  2.982   1.2154
  2.980   1.2154
  2.979   1.1948
  2.977   1.2566
  2.975   1.2051
  2.974   1.1124
  2.972   1.0197
  2.970   1.0712
  2.968   1.1845
  2.967   1.2772
  2.965   1.2463
  2.963   1.2463
  2.962   1.1742
  2.960   1.1021
  2.958   1.1021
  2.957   1.1330
  2.955   1.1948
  2.953   1.2875
  2.952   1.2257
  2.950   1.1845
  2.948   1.2463
  2.947   1.3184
  2.945   1.1948
  2.943   1.1742
  2.942   1.1742
  2.940   1.2360
  2.938   1.1845
  2.937   1.1433
  2.935   1.1124
  2.933   1.2669
  2.932   1.2978
  2.930   1.2875
  2.928   1.2772
  2.927   1.3081
  2.925   1.2360
  2.923   1.3390
  2.922   1.3390
  2.920   1.2154
  2.918   1.2360
  2.917   1.3081
  2.915   1.3184
  2.913   1.4111
  2.912   1.3287
  2.910   1.2875
  2.909   1.2463
  2.907   1.3390
  2.905   1.3905
  2.904   1.4111
  2.902   1.3699
  2.900   1.3905
  2.899   1.4729
  2.897   1.4729
  2.896   1.4523
  2.894   1.5347
  2.892   1.4935
  2.891   1.4935
  2.889   1.5450
  2.887   1.6480
  2.886   1.6171
  2.884   1.6377
  2.883   1.6583
  2.881   1.6068
  2.879   1.5759
  2.878   1.5656
  2.876   1.4832
  2.875   1.3802
  2.873   1.3184
  2.871   1.3596
  2.870   1.3699
  2.868   1.3905
  2.867   1.3802
  2.865   1.4317
  2.864   1.4008
  2.862   1.4420
  2.860   1.4729
  2.859   1.4111
  2.857   1.2669
  2.856   1.2257
  2.854   1.2463
  2.853   1.4111
  2.851   1.3493
  2.849   1.1742
  2.848   1.1948
  2.846   1.4523
  2.845   1.4214
  2.843   1.4111
  2.842   1.3802
  2.840   1.3184
  2.838   1.3390
  2.837   1.3493
  2.835   1.3081
  2.834   1.2978
  2.832   1.3699
  2.831   1.3184
  2.829   1.2051
  2.828   1.2772
  2.826   1.3905
  2.825   1.4626
  2.823   1.3699
  2.821   1.3596
  2.820   1.3802
  2.818   1.3699
  2.817   1.3184
  2.815   1.4935
  2.814   1.4832
  2.812   1.3493
  2.811   1.2875
  2.809   1.4008
  2.808   1.4523
  2.806   1.4832
  2.805   1.4832
  2.803   1.4317
  2.802   1.3802
  2.800   1.4420
  2.799   1.5553
  2.797   1.6171
  2.796   1.6686
  2.794   1.6995
  2.793   1.6068
  2.791   1.7922
  2.790   1.8334
  2.788   1.8025
  2.787   1.7819
  2.785   1.7819
  2.784   1.7922
  2.782   1.7613
  2.781   1.7922
  2.779   1.9879
  2.778   2.0497
  2.776   2.2351
  2.775   2.2557
  2.773   2.0600
  2.772   2.1012
  2.770   2.3175
  2.769   2.3587
  2.767   2.2763
  2.766   2.2145
  2.764   2.2660
  2.763   2.3381
  2.761   2.4823
  2.760   2.5132
  2.758   2.4823
  2.757   2.6059
  2.756   2.8634
  2.754   2.8119
  2.753   2.7707
  2.751   2.8840
  2.750   3.0282
  2.748   3.0488
  2.747   3.1518
  2.745   3.1106
  2.744   3.1621
  2.742   3.2033
  2.741   3.3372
  2.740   3.3372
  2.738   3.4402
  2.737   3.5844
  2.735   3.6977
  2.734   3.7389
  2.732   3.8625
  2.731   3.8934
  2.729   4.0788
  2.728   4.1200
  2.727   4.1921
  2.725   4.4084
  2.724   4.7174
  2.722   4.6865
  2.721   4.6144
  2.719   4.7380
  2.718   4.9440
  2.717   5.1500
  2.715   5.2530
  2.714   5.1603
  2.712   5.3045
  2.711   5.5105
  2.709   5.5929
  2.708   5.5311
  2.707   5.6032
  2.705   5.7474
  2.704   6.0358
  2.702   6.2212
  2.701   6.3551
  2.700   6.3757
  2.698   6.3757
  2.697   6.3757
  2.695   6.5199
  2.694   6.7053
  2.693   6.8186
  2.691   6.6847
  2.690   6.7156
  2.688   6.7465
  2.687   6.8907
  2.686   6.9422
  2.684   6.8907
  2.683   6.9834
  2.681   7.0761
  2.680   7.1791
  2.679   7.3954
  2.677   7.3748
  2.676   7.4263
  2.675   7.5190
  2.673   7.4366
  2.672   7.3954
  2.670   7.6220
  2.669   7.7662
  2.668   7.7250
  2.666   7.8280
  2.665   7.9516
  2.664   7.7765
  2.662   7.7250
  2.661   7.8177
  2.659   7.9516
  2.658   7.9825
  2.657   8.1782
  2.655   8.3327
  2.654   8.3327
  2.653   8.2606
  2.651   8.2503
  2.650   8.3018
  2.649   8.4254
  2.647   8.4666
  2.646   8.5078
  2.645   8.4151
  2.643   8.4563
  2.642   8.5387
  2.640   8.5181
  2.639   8.5387
  2.638   8.6211
  2.636   8.6829
  2.635   8.8477
  2.634   8.9610
  2.632   9.0434
  2.631   9.1464
  2.630   9.0949
  2.628   9.0228
  2.627   9.1567
  2.626   9.1052
  2.624   8.9507
  2.623   8.8992
  2.622   9.1979
  2.620   9.4451
  2.619   9.4039
  2.618   9.2803
  2.617   9.4039
  2.615   9.4142
  2.614   9.3318
  2.613   9.2082
  2.611   9.3318
  2.610   9.5275
  2.609   9.5481
  2.607   9.5584
  2.606   9.8262
  2.605   9.9807
  2.603   9.9807
  2.602   9.8468
  2.601   9.8262
  2.599   9.8468
  2.598   9.9292
  2.597  10.1146
  2.596  10.3618
  2.594  10.2382
  2.593  10.1352
  2.592   9.9704
  2.590  10.0013
  2.589  10.1867
  2.588  10.4133
  2.586  10.4648
  2.585  10.3206
  2.584  10.4545
  2.583  10.5060
  2.581  10.2588
  2.580  10.2794
  2.579  10.4030
  2.577  10.4751
  2.576  10.4854
  2.575  10.5884
  2.574  10.6502
  2.572  10.7223
  2.571  10.5884
  2.570  10.5781
  2.569  10.5369
  2.567  10.5163
  2.566  10.5266
  2.565  10.7532
  2.563  10.7944
  2.562  10.8768
  2.561  11.0313
  2.560  11.0107
  2.558  10.9077
  2.557  11.0931
  2.556  11.0519
  2.555  10.9180
  2.553  10.9386
  2.552  10.9695
  2.551  11.1034
  2.550  11.1961
  2.548  11.1034
  2.547  11.0622
  2.546  11.0519
  2.545  11.1858
  2.543  11.3197
  2.542  11.3506
  2.541  11.3609
  2.540  11.4021
  2.538  11.3918
  2.537  11.4639
  2.536  11.4639
  2.535  11.5257
  2.533  11.4948
  2.532  11.5257
  2.531  11.4742
  2.530  11.4227
  2.528  11.4330
  2.527  11.4845
  2.526  11.4227
  2.525  11.5566
  2.524  11.5360
  2.522  11.5669
  2.521  11.6287
  2.520  11.7111
  2.519  11.7523
  2.517  11.8450
  2.516  11.7523
  2.515  11.7317
  2.514  11.7420
  2.513  11.7523
  2.511  11.6699
  2.510  11.8141
  2.509  11.8862
  2.508  11.8759
  2.506  11.9686
  2.505  11.9686
  2.504  11.9583
  2.503  12.0201
  2.502  11.9583
  2.500  11.9892
  2.500  11.9892
  2.498  11.6442
  2.496  12.4216
  2.494  11.4106
  2.492  12.1943
  2.490  11.9199
  2.488  11.5918
  2.486  12.0908
  2.484  12.7548
  2.482  11.6330
  2.480  12.0845
  2.478  12.4450
  2.476  12.3289
  2.474  12.2900
  2.472  12.2148
  2.470  12.0370
  2.468  12.2290
  2.466  12.5598
  2.464  12.7947
  2.462  12.5898
  2.460  13.0175
  2.458  13.5266
  2.456  12.9226
  2.454  13.2568
  2.452  13.3579
  2.450  13.3801
  2.448  13.2569
  2.446  13.4901
  2.444  13.4863
  2.442  13.8824
  2.440  13.0072
  2.438  14.4848
  2.436  13.7123
  2.434  13.8103
  2.432  13.7837
  2.430  13.8891
  2.428  13.9302
  2.426  13.9865
  2.424  14.0830
  2.422  14.1258
  2.420  14.4458
  2.418  14.1163
  2.416  14.0361
  2.414  14.5147
  2.412  14.5256
  2.410  14.5661
  2.408  15.0047
  2.406  14.9839
  2.404  14.7660
  2.402  15.0282
  2.400  14.8688
  2.398  15.1032
  2.396  15.4041
  2.394  15.1102
  2.392  15.3544
  2.390  15.4481
  2.388  15.6764
  2.386  15.5956
  2.384  15.6990
  2.382  15.6303
  2.380  16.1170
  2.378  15.9281
  2.376  16.2229
  2.374  16.3998
  2.372  16.3759
  2.370  16.5607
  2.368  16.5573
  2.366  16.7510
  2.364  16.9439
  2.362  17.0181
  2.360  17.1041
  2.358  17.2842
  2.356  17.4219
  2.354  17.5903
  2.352  17.5969
  2.350  17.2618
  2.348  17.3481
  2.346  17.6138
  2.344  17.5611
  2.342  17.7706
  2.340  17.7839
  2.338  17.8522
  2.336  18.0829
  2.334  17.7011
  2.332  18.0169
  2.330  18.1729
  2.328  18.1565
  2.326  18.1238
  2.324  18.3631
  2.322  18.5148
  2.320  18.5084
  2.318  18.5229
  2.316  18.4872
  2.314  18.5475
  2.312  18.7330
  2.310  18.8328
  2.308  18.7822
  2.306  19.0326
  2.304  18.9718
  2.302  18.8760
  2.300  18.8389
  2.298  18.9035
  2.296  18.8841
  2.294  18.8445
  2.292  18.9240
  2.290  19.0024
  2.288  19.0421
  2.286  18.8562
  2.284  18.7665
  2.282  18.8558
  2.280  18.9306
  2.278  18.8391
  2.276  18.7162
  2.274  18.6712
  2.272  18.7452
  2.270  18.6927
  2.268  18.4546
  2.266  18.3380
  2.264  18.0550
  2.262  17.9016
  2.260  17.9305
  2.258  17.8954
  2.256  17.6305
  2.254  17.5345
  2.252  17.4753
  2.250  17.4443
  2.248  17.4855
  2.246  17.2855
  2.244  17.2458
  2.242  17.3020
  2.240  17.0971
  2.238  17.3338
  2.236  17.4448
  2.234  17.6000
  2.232  17.5457
  2.230  17.4554
  2.228  17.3742
  2.226  17.2872
  2.224  17.2659
  2.222  17.2867
  2.220  17.2779
  2.218  17.2704
  2.216  17.0749
  2.214  17.0435
  2.212  16.9535
  2.210  16.8784
  2.208  16.7734
  2.206  16.7147
  2.204  16.5963
  2.202  16.3899
  2.200  16.3461
  2.198  16.2539
  2.196  16.2810
  2.194  16.1298
  2.192  15.9348
  2.190  15.7348
  2.188  15.6840
  2.186  15.6157
  2.184  15.5217
  2.182  15.4588
  2.180  15.3872
  2.178  15.4222
  2.176  15.3585
  2.174  15.3442
  2.172  15.4290
  2.170  15.5527
  2.168  15.6814
  2.166  15.5827
  2.164  15.5431
  2.162  15.8151
  2.160  16.0563
  2.158  16.0983
  2.156  16.0556
  2.154  16.1287
  2.152  16.1546
  2.150  16.2734
  2.148  16.3604
  2.146  16.4383
  2.144  16.3756
  2.142  16.3828
  2.140  16.4078
  2.138  16.3064
  2.136  16.2407
  2.134  16.2078
  2.132  16.0442
  2.130  15.9246
  2.128  15.7461
  2.126  15.8729
  2.124  15.8976
  2.122  15.8922
  2.120  16.1223
  2.118  16.0895
  2.116  16.2222
  2.114  16.3350
  2.112  16.3456
  2.110  16.4973
  2.108  16.6943
  2.106  16.6774
  2.104  16.7124
  2.102  16.8732
  2.100  17.2068
  2.098  16.9386
  2.096  16.8405
  2.094  16.9960
  2.092  17.2359
  2.090  17.2529
  2.088  17.2072
  2.086  17.1352
  2.084  17.2869
  2.082  17.2933
  2.080  17.4798
  2.078  17.3357
  2.076  17.2451
  2.074  17.4017
  2.072  17.5022
  2.070  17.4222
  2.068  17.4292
  2.066  17.5027
  2.064  17.3676
  2.062  17.4437
  2.060  17.4553
  2.058  17.3806
  2.056  17.5906
  2.054  17.4161
  2.052  17.5897
  2.050  17.2245
  2.048  16.8576
  2.046  16.9970
  2.044  17.0076
  2.042  17.3225
  2.040  17.1909
  2.038  17.3794
  2.036  17.2149
  2.034  17.1656
  2.032  17.0654
  2.030  17.2741
  2.028  17.2763
  2.026  17.4674
  2.024  17.3482
  2.022  17.2188
  2.020  17.0253
  2.018  17.1080
  2.016  16.9234
  2.014  17.0711
  2.012  16.8088
  2.010  16.7727
  2.008  16.4232
  2.006  16.4034
  2.004  16.3279
  2.002  16.1648
  2.000  16.0266
  1.998  15.7849
  1.996  15.7692
  1.994  15.2864
  1.992  15.4837
  1.990  15.2758
  1.988  14.7565
  1.986  14.9800
  1.984  15.0074
  1.982  14.7572
  1.980  14.6125
  1.978  14.3606
  1.976  14.3584
  1.974  14.4668
  1.972  14.2885
  1.970  13.9420
  1.968  13.8870
  1.966  13.8811
  1.964  13.4890
  1.962  13.3037
  1.960  13.2239
  1.958  13.2910
  1.956  13.3532
  1.954  13.1727
  1.952  13.3507
  1.950  13.5452
  1.948  13.7109
  1.946  14.3222
  1.944  14.2978
  1.942  15.1948
  1.940  14.8201
  1.938  15.7620
  1.936  15.6688
  1.934  16.1362
  1.932  16.5096
  1.930  16.8062
  1.928  17.2700
  1.926  17.2646
  1.924  18.0285
  1.922  18.3995
  1.920  18.6099
  1.918  19.2061
  1.916  19.4559
  1.914  19.7904
  1.912  20.3237
  1.910  20.7176
  1.908  21.1306
  1.906  21.5875
  1.904  21.8913
  1.902  22.4092
  1.900  22.7722
  1.898  23.3350
  1.896  23.7379
  1.894  24.0732
  1.892  24.5340
  1.890  24.7821
  1.888  25.1664
  1.886  25.5699
  1.884  25.9854
  1.882  26.0851
  1.880  26.6683
  1.878  26.9683
  1.876  27.5250
  1.874  27.2110
  1.872  27.6869
  1.870  28.3280
  1.868  28.3688
  1.866  28.8447
  1.864  29.0479
  1.862  29.1779
  1.860  28.8256
  1.858  29.4846
  1.856  29.5675
  1.854  29.5744
  1.852  29.9812
  1.850  30.0587
  1.848  30.3476
  1.846  30.5080
  1.844  30.5996
  1.842  30.1827
  1.840  30.3773
  1.838  30.5154
  1.836  30.6817
  1.834  30.7381
  1.832  30.5495
  1.830  30.7688
  1.828  30.6811
  1.826  31.0377
  1.824  30.9229
  1.822  30.6977
  1.820  30.7341
  1.818  30.8659
  1.816  31.1070
  1.814  30.5872
  1.812  30.5941
  1.810  30.9801
  1.808  30.7320
  1.806  30.8336
  1.804  30.5137
  1.802  30.4889
  1.800  30.3852
  1.798  30.7529
  1.796  30.3044
  1.794  30.2630
  1.792  30.2127
  1.790  30.1881
  1.788  30.2489
  1.786  29.9740
  1.784  29.9526
  1.782  30.0457
  1.780  29.9833
  1.778  29.9558
  1.776  29.8509
  1.774  30.2568
  1.772  29.9685
  1.770  29.8934
  1.768  30.2236
  1.766  29.9607
  1.764  30.1662
  1.762  30.1749
  1.760  30.4361
  1.758  30.0052
  1.756  30.2780
  1.754  30.4556
  1.752  30.2942
  1.750  30.3547
  1.748  30.3590
  1.746  30.3290
  1.744  30.6565
  1.742  30.7449
  1.740  30.4250
  1.738  30.6331
  1.736  30.6343
  1.734  30.6481
  1.732  30.9322
  1.730  30.7693
  1.728  30.8935
  1.726  30.7816
  1.724  31.0180
  1.722  31.0742
  1.720  30.7662
  1.718  31.0480
  1.716  31.2372
  1.714  31.1252
  1.712  31.0795
  1.710  31.0654
  1.708  30.9872
  1.706  31.1880
  1.704  30.8992
  1.702  31.1779
  1.700  31.6865
  1.698  31.3564
  1.696  31.4152
  1.694  31.3828
  1.692  31.3077
  1.690  31.1498
  1.688  31.2593
  1.686  31.5901
  1.684  31.4958
  1.682  31.6796
  1.680  31.5822
  1.678  31.5864
  1.676  31.5685
  1.674  31.6203
  1.672  31.9251
  1.670  31.6364
  1.668  31.4867
  1.666  31.8497
  1.664  31.7430
  1.662  31.9688
  1.660  31.8370
  1.658  31.8434
  1.656  32.1569
  1.654  32.2215
  1.652  32.2192
  1.650  32.5364
  1.648  32.5420
  1.646  32.2323
  1.644  32.4423
  1.642  32.9316
  1.640  32.6231
  1.638  32.6811
  1.636  32.8660
  1.634  32.7728
  1.632  32.9011
  1.630  33.0002
  1.628  33.2463
  1.626  33.1173
  1.624  33.1181
  1.622  33.1992
  1.620  33.4426
  1.618  33.4716
  1.616  33.6158
  1.614  33.4906
  1.612  33.3992
  1.610  33.6133
  1.608  33.7627
  1.606  33.8922
  1.604  33.9247
  1.602  34.0129
  1.600  33.9662
  1.598  33.9619
  1.596  34.2513
  1.594  34.3006
  1.592  34.2263
  1.590  34.6149
  1.588  34.6609
  1.586  34.3557
  1.584  34.3391
  1.582  34.6916
  1.580  34.7474
  1.578  34.6704
  1.576  34.3913
  1.574  34.4405
  1.572  34.6145
  1.570  34.6588
  1.568  34.5516
  1.566  34.5016
  1.564  34.6359
  1.562  34.5107
  1.560  34.4526
  1.558  34.4341
  1.556  34.2743
  1.554  34.1442
  1.552  33.9992
  1.550  33.6448
  1.548  33.6870
  1.546  33.7491
  1.544  33.4580
  1.542  33.4851
  1.540  33.5800
  1.538  33.4073
  1.536  33.1000
  1.534  33.1127
  1.532  33.3385
  1.530  33.1172
  1.528  32.9074
  1.526  32.7424
  1.524  32.8267
  1.522  32.8988
  1.520  32.4502
  1.518  32.3994
  1.516  32.1933
  1.514  31.9784
  1.512  32.0320
  1.510  31.6810
  1.508  31.5911
  1.506  31.3340
  1.504  31.1713
  1.502  31.3542
  1.500  31.0392
  1.498  30.8503
  1.496  30.8563
  1.494  30.8269
  1.492  30.3547
  1.490  30.2183
  1.488  30.2087
  1.486  29.9507
  1.484  29.7670
  1.482  29.4858
  1.480  29.2985
  1.478  29.2887
  1.476  28.9078
  1.474  29.0386
  1.472  28.9616
  1.470  29.1455
  1.468  28.9357
  1.466  28.9380
  1.464  29.3902
  1.462  29.4577
  1.460  29.8236
  1.458  29.8347
  1.456  30.0366
  1.454  30.5128
  1.452  30.5529
  1.450  30.4986
  1.448  30.6147
  1.446  30.4728
  1.444  30.3323
  1.442  29.8735
  1.440  29.5090
  1.438  29.1613
  1.436  28.7679
  1.434  28.8666
  1.432  29.6148
  1.430  29.8143
  1.428  30.9926
  1.426  32.0837
  1.424  33.4206
  1.422  34.8829
  1.420  36.6876
  1.418  38.2053
  1.416  39.4296
  1.414  41.4047
  1.412  42.9681
  1.410  44.8555
  1.408  46.6153
  1.406  48.2662
  1.404  49.9349
  1.402  51.1049
  1.400  52.4370
  1.398  53.8104
  1.396  55.6012
  1.394  57.0809
  1.392  58.6950
  1.390  60.1088
  1.388  61.1779
  1.386  61.8652
  1.384  62.4849
  1.382  63.4274
  1.380  64.1500
  1.378  65.2514
  1.376  65.6503
  1.374  66.0801
  1.372  66.3276
  1.370  66.5032
  1.368  67.0192
  1.366  67.4832
  1.364  67.6085
  1.362  67.7091
  1.360  68.2477
  1.358  68.4946
  1.356  68.7821
  1.354  69.1068
  1.352  69.1172
  1.350  69.5380
  1.348  70.2675
  1.346  70.4918
  1.344  71.1746
  1.342  71.5331
  1.340  72.5598
  1.338  72.8112
  1.336  74.0546
  1.334  74.7177
  1.332  75.5177
  1.330  76.5045
  1.328  77.2163
  1.326  77.7746
  1.324  78.6497
  1.322  79.3262
  1.320  80.1767
  1.318  80.8415
  1.316  81.7100
  1.314  82.1163
  1.312  83.0539
  1.310  83.2472
  1.308  84.1206
  1.306  84.3355
  1.304  84.9705
  1.302  85.3147
  1.300  85.5872
  1.298  85.9341
  1.296  86.1950
  1.294  86.2904
  1.292  86.6546
  1.290  86.5478
  1.288  86.5324
  1.286  86.7908
  1.284  86.6535
  1.282  86.7027
  1.280  86.7919
  1.278  86.4547
  1.276  86.6610
  1.274  86.4550
  1.272  86.5800
  1.270  86.0836
  1.268  86.6587
  1.266  86.3172
  1.264  85.9003
  1.262  86.0221
  1.260  85.6830
  1.258  85.8207
  1.256  85.6059
  1.254  85.5438
  1.252  85.1182
  1.250  85.4534
  1.248  85.8353
  1.246  85.2423
  1.244  85.7472
  1.242  85.7821
  1.240  85.5845
  1.238  85.5404
  1.236  85.3912
  1.234  85.6549
  1.232  85.5748
  1.230  85.9959
  1.228  86.1390
  1.226  86.1708
  1.224  86.4637
  1.222  86.5895
  1.220  86.6379
  1.218  86.6730
  1.216  86.7839
  1.214  86.9683
  1.212  87.2431
  1.210  87.2495
  1.208  87.7364
  1.206  87.6849
  1.204  87.5942
  1.202  88.3638
  1.200  88.3146
  1.198  88.6835
  1.196  88.7315
  1.194  89.2804
  1.192  89.6630
  1.190  90.1935
  1.188  90.8366
  1.186  91.1635
  1.184  92.1531
  1.182  92.9532
  1.180  94.0812
  1.178  95.0877
  1.176  95.7972
  1.174  96.6500
  1.172  97.7556
  1.170  98.7484
  1.168  99.8417
  1.166 100.4724
  1.164 101.2266
  1.162 101.9488
  1.160 102.9592
  1.158 103.7710
  1.156 103.9652
  1.154 104.5257
  1.152 105.1946
  1.150 105.7973
  1.148 106.1837
  1.146 106.3309
  1.144 107.0019
  1.142 107.1486
  1.140 107.5762
  1.138 107.8157
  1.136 107.7564
  1.134 108.0535
  1.132 108.3919
  1.130 108.3655
  1.128 108.5082
  1.126 108.7189
  1.124 108.5490
  1.122 109.1618
  1.120 109.1825
  1.118 108.9576
  1.116 109.2661
  1.114 109.3510
  1.112 109.4954
  1.110 109.5564
  1.108 109.8557
  1.106 109.8118
  1.104 109.5696
  1.102 109.8224
  1.100 110.1332
  1.098 109.9086
  1.096 110.0981
  1.094 110.2413
  1.092 110.3779
  1.090 110.4469
  1.088 110.4344
  1.086 110.3121
  1.084 110.3965
  1.082 110.3232
  1.080 110.3827
  1.078 110.3026
  1.076 110.4217
  1.074 110.4075
  1.072 110.5470
  1.070 110.6140
  1.068 110.5316
  1.066 110.5389
  1.064 110.3971
  1.062 110.2633
  1.060 109.7158
  1.058 109.6589
  1.056 109.8898
  1.054 109.5867
  1.052 109.5386
  1.050 109.2913
  1.048 109.1401
  1.046 108.8914
  1.044 108.6162
  1.042 108.5181
  1.040 108.3526
  1.038 107.8791
  1.036 107.5313
  1.034 107.3560
  1.032 107.1738
  1.030 107.0001
  1.028 106.3901
  1.026 106.1975
  1.024 106.1521
  1.022 105.9593
  1.020 105.5585
  1.018 105.2183
  1.016 104.9224
  1.014 104.8027
  1.012 104.5477
  1.010 104.3998
  1.008 104.0047
  1.006 103.9576
  1.004 103.8156
  1.002 103.6928
  1.000 103.4999
  0.998 103.0440
  0.996 102.7497
  0.994 102.6551
  0.992 102.0932
  0.990 101.7265
  0.988 101.2601
  0.986 100.5138
  0.984  99.6432
  0.982  99.4049
  0.980  99.5675
  0.978  99.9184
  0.976 100.9790
  0.974 102.1286
  0.972 103.2183
  0.970 104.2068
  0.968 105.1887
  0.966 106.1583
  0.964 106.9815
  0.962 107.7937
  0.960 108.6086
  0.958 109.0613
  0.956 109.5898
  0.954 110.2729
  0.952 110.5195
  0.950 110.5781
  0.948 110.9622
  0.946 111.2436
  0.944 111.5776
  0.942 111.8429
  0.940 112.1032
  0.938 112.2186
  0.936 112.2393
  0.934 112.2373
  0.932 112.3234
  0.930 112.4934
  0.928 112.6411
  0.926 112.8241
  0.924 113.1190
  0.922 113.3624
  0.920 113.2685
  0.918 113.3233
  0.916 113.4670
  0.914 113.4798
  0.912 113.4550
  0.910 113.4656
  0.908 113.4443
  0.906 113.4080
  0.904 113.3822
  0.902 113.3908
  0.900 113.7952
  0.898 113.9966
  0.896 113.8515
  0.894 113.9077
  0.892 114.1113
  0.890 114.3120
  0.888 114.2986
  0.886 114.4161
  0.884 114.3339
  0.882 114.2683
  0.880 114.1946
  0.878 114.4497
  0.876 114.7932
  0.874 114.8539
  0.872 114.1010
  0.870 114.4088
  0.868 115.2805
  0.866 114.7294
  0.864 113.9213
  0.862 114.8927
  0.860 114.7222
  0.858 113.8131
  0.856 113.4551
  0.854 113.5467
  0.852 113.5294
  0.850 113.6430
  0.848 113.7380
  0.846 113.6583
  0.844 113.7481
  0.842 113.7775
  0.840 113.8141
  0.838 113.8851
  0.836 113.9411
  0.834 113.9449
  0.832 114.0118
  0.830 114.0820
  0.828 114.0779
  0.826 114.0457
  0.824 114.0505
  0.822 113.9991
  0.820 114.0537
  0.818 114.0707
  0.816 114.0220
  0.814 114.0634
  0.812 114.1137
  0.810 114.1651
  0.808 114.1064
  0.806 114.1427
  0.804 114.0638
  0.802 114.0316
  0.800 114.0328
  0.798 114.0256
  0.796 114.0933
  0.794 114.0870
  0.792 114.0648
  0.790 114.0069
  0.788 113.9591
  0.786 113.9384
  0.784 113.9768
  0.782 113.9844
  0.780 113.9336
  0.778 113.9139
  0.776 113.9346
  0.774 113.9823
  0.772 113.9186
  0.770 113.9432
  0.768 113.9039
  0.766 113.9278
  0.764 113.9126
  0.762 113.8593
  0.760 113.8301
  0.758 113.7746
  0.756 113.7272
  0.754 113.7463
  0.752 113.8302
  0.750 113.9053
  0.748 113.9602
  0.746 114.0080
  0.744 114.1403
  0.742 114.2527
  0.740 114.3688
  0.738 114.4536
  0.736 114.4909
  0.734 114.5925
  0.732 114.5378
  0.730 114.6300
  0.728 114.6808
  0.726 114.7623
  0.724 114.7665
  0.722 114.7770
  0.720 114.7570
  0.718 114.8079
  0.716 114.8661
  0.714 114.8563
  0.712 114.8720
  0.710 114.8902
  0.708 114.8907
  0.706 114.9530
  0.704 115.0020
  0.702 114.9811
  0.700 114.9574
  0.698 115.0010
  0.696 115.0585
  0.694 115.0575
  0.692 115.0358
  0.690 115.1023
  0.688 115.0349
  0.686 115.1628
  0.684 115.1420
  0.682 115.1439
  0.680 115.1480
  0.678 115.2136
  0.676 115.2108
  0.674 115.2421
  0.672 115.2517
  0.670 115.2484
  0.668 115.2403
  0.666 115.3094
  0.664 115.3046
  0.662 115.3412
  0.660 115.3835
  0.658 115.3824
  0.656 115.3668
  0.654 115.4216
  0.652 115.3854
  0.650 115.3628
  0.648 115.3958
  0.646 115.3735
  0.644 115.4351
  0.642 115.4734
  0.640 115.4032
  0.638 115.4431
  0.636 115.4478
  0.634 115.4487
  0.632 115.5227
  0.630 115.4777
  0.628 115.5022
  0.626 115.4833
  0.624 115.4848
  0.622 115.5262
  0.620 115.5254
  0.618 115.5039
  0.616 115.5563
  0.614 115.5636
  0.612 115.6163
  0.610 115.5957
  0.608 115.6780
  0.606 115.6775
  0.604 115.7582
  0.602 115.6941
  0.600 115.8113
  0.598 115.7464
  0.596 115.7472
  0.594 115.7371
  0.592 115.7516
  0.590 115.7642
  0.588 115.7895
  0.586 115.7892
  0.584 115.7904
  0.582 115.8096
  0.580 115.7889
  0.578 115.7736
  0.576 115.7993
  0.574 115.8341
  0.572 115.8194
  0.570 115.7979
  0.568 115.8089
  0.566 115.8383
  0.564 115.8406
  0.562 115.8493
  0.560 115.8007
  0.558 115.7848
  0.556 115.8476
  0.554 115.8074
  0.552 115.8645
  0.550 115.8612
  0.548 115.7947
  0.546 115.7915
  0.544 115.8642
  0.542 115.8503
  0.540 115.8207
  0.538 115.7863
  0.536 115.8157
  0.534 115.7678
  0.532 115.7818
  0.530 115.7779
  0.528 115.8080
  0.526 115.7863
  0.524 115.7928
  0.522 115.7711
  0.520 115.7736
  0.518 115.7965
  0.516 115.8283
  0.514 115.8517
  0.512 115.8492
  0.510 115.9052
  0.508 115.9957
  0.506 115.9801
  0.504 115.9795
  0.502 116.0323
  0.500 116.0138
  0.498 116.0082
  0.496 116.0069
  0.494 115.9924
  0.492 115.9617
  0.490 115.9225
  0.488 115.8871
  0.486 115.8252
  0.484 115.7146
  0.482 115.5898
  0.480 115.6097
  0.478 115.6475
  0.476 115.6467
  0.474 115.6245
  0.472 115.6618
  0.470 115.6266
  0.468 115.6302
  0.466 115.6275
  0.464 115.7167
  0.462 115.7041
  0.460 115.7646
  0.458 115.7370
  0.456 115.7469
  0.454 115.7805
  0.452 115.7677
  0.450 115.7507
  0.448 115.7287
  0.446 115.6284
  0.444 115.6057
  0.442 115.5893
  0.440 115.5565
  0.438 115.5375
  0.436 115.5334
  0.434 115.5648
  0.432 115.5652
  0.430 115.5472
  0.428 115.5657
  0.426 115.5404
  0.424 115.5310
  0.422 115.4965
  0.420 115.5064
  0.418 115.5013
  0.416 115.5425
  0.414 115.5248
  0.412 115.5190
  0.410 115.4960
  0.408 115.4859
  0.406 115.5204
  0.404 115.5123
  0.402 115.5095
  0.400 115.5167
