Name:  Chabazite CaAl2Si4O12.6H2O 
Type:  Mineral
Class:  Silicates
Subclass:   Tectosilicates (Framework silicates) (Zeolite Group)
Particle Size: Coarse (74-250 Micrometers)
Sample No.:  chabazite.1
Owner:  JHU
Wavelength Range:  IR
Origin:  W. J. Ehmann #40; from Kyogle, N.S.W., Australia. 

Description: The sample was a white crystalline mass.  
Petrographically the sample appears to be pure chabazite.




Measurement:  Transmission 
First Column:  X
Second Column:  Y  
X Units:  Wavelength (micrometers)
Y Units:  Reflectance (percent)
First X Value:  25.0442
Last X Value:  2.079
Number of X Values:  2287
Additional Information:  chabaz1a.txt

25.044	4.4023
24.924	4.5913
24.805	4.7749
24.686	4.7495
24.569	4.6077
24.454	4.5586
24.339	4.5298
24.225	4.4849
24.112	4.3618
24.001	4.3330
23.890	4.2219
23.781	4.1377
23.672	4.0969
23.564	3.9341
23.458	3.8857
23.352	3.8452
23.247	3.7300
23.144	3.5859
23.041	3.5901
22.939	3.6077
22.838	3.5471
22.738	3.5644
22.638	3.6179
22.540	3.6550
22.442	3.6592
22.345	3.6077
22.250	3.6162
22.154	3.6428
22.060	3.7046
21.967	3.7898
21.874	3.8208
21.782	3.8205
21.691	3.8120
21.601	3.8564
21.511	3.9128
21.422	3.9272
21.334	3.9441
21.247	3.9192
21.160	3.7988
21.074	3.7385
20.988	3.8025
20.904	3.7378
20.820	3.6279
20.737	3.5615
20.654	3.4568
20.572	3.3652
20.491	3.3086
20.410	3.2131
20.330	3.1321
20.251	3.0649
20.172	3.0539
20.094	3.0705
20.016	3.0696
19.939	3.0354
19.863	3.0564
19.787	3.0854
19.712	3.1282
19.637	3.1470
19.563	3.1570
19.489	3.2275
19.416	3.2861
19.344	3.2993
19.272	3.3469
19.201	3.3806
19.130	3.3784
19.059	3.3308
18.990	3.2600
18.920	3.1443
18.851	2.9573
18.783	2.8223
18.715	2.6799
18.648	2.5273
18.581	2.4138
18.515	2.3501
18.449	2.2883
18.384	2.2405
18.319	2.2698
18.254	2.2634
18.190	2.2351
18.126	2.2280
18.063	2.2500
18.001	2.2651
17.938	2.2744
17.876	2.2578
17.815	2.2717
17.754	2.3210
17.693	2.3274
17.633	2.3152
17.573	2.3464
17.514	2.3643
17.455	2.3506
17.396	2.3757
17.338	2.3943
17.280	2.3931
17.223	2.4036
17.166	2.4204
17.109	2.4619
17.053	2.4729
16.997	2.4563
16.942	2.4985
16.886	2.5132
16.832	2.5115
16.777	2.5464
16.723	2.5706
16.669	2.5884
16.616	2.5947
16.563	2.5994
16.510	2.6196
16.458	2.6260
16.406	2.6489
16.354	2.7075
16.302	2.7014
16.251	2.7173
16.200	2.7822
16.150	2.7966
16.100	2.7859
16.050	2.8103
16.000	2.8142
15.951	2.8142
15.902	2.8027
15.854	2.7847
15.805	2.7771
15.757	2.7444
15.710	2.7229
15.662	2.7290
15.615	2.7190
15.568	2.6787
15.521	2.6428
15.475	2.6023
15.429	2.5469
15.383	2.4714
15.338	2.4219
15.292	2.3682
15.248	2.2690
15.203	2.1489
15.158	2.0644
15.114	1.9812
15.070	1.9080
15.027	1.8450
14.983	1.7935
14.940	1.7642
14.897	1.7400
14.854	1.7153
14.812	1.7051
14.770	1.7161
14.728	1.7031
14.686	1.7026
14.645	1.7122
14.603	1.7317
14.562	1.7300
14.521	1.7212
14.481	1.7202
14.441	1.7510
14.400	1.7671
14.361	1.7356
14.321	1.7251
14.281	1.7390
14.242	1.7458
14.203	1.7415
14.164	1.7356
14.126	1.7229
14.087	1.7292
14.049	1.7261
14.011	1.7136
13.973	1.7236
13.936	1.7129
13.899	1.7063
13.861	1.7009
13.824	1.7048
13.788	1.6938
13.751	1.6904
13.715	1.6868
13.679	1.6738
13.643	1.6536
13.607	1.6570
13.571	1.6631
13.536	1.6558
13.500	1.6404
13.465	1.6438
13.430	1.6457
13.396	1.6143
13.361	1.6084
13.327	1.6389
13.293	1.6489
13.259	1.6570
13.225	1.6621
13.191	1.6536
13.158	1.6528
13.124	1.6594
13.091	1.6670
13.058	1.6892
13.026	1.6838
12.993	1.6504
12.960	1.6450
12.928	1.6694
12.896	1.6819
12.864	1.6604
12.832	1.6606
12.800	1.6863
12.769	1.6963
12.737	1.7082
12.706	1.7229
12.675	1.7451
12.644	1.7624
12.614	1.7810
12.583	1.8030
12.552	1.8276
12.522	1.8647
12.492	1.8845
12.462	1.9148
12.432	1.9529
12.402	1.9956
12.373	2.0266
12.343	2.0593
12.314	2.0901
12.285	2.1108
12.256	2.1379
12.227	2.1692
12.198	2.1987
12.169	2.2300
12.141	2.2747
12.113	2.2993
12.084	2.3074
12.056	2.3372
12.028	2.3572
12.000	2.3669
11.973	2.3862
11.945	2.4160
11.918	2.4485
11.890	2.4717
11.863	2.4995
11.836	2.5110
11.809	2.5249
11.782	2.5498
11.755	2.5874
11.729	2.5942
11.702	2.6089
11.676	2.6457
11.650	2.6714
11.624	2.6819
11.598	2.6977
11.572	2.7324
11.546	2.7632
11.520	2.7905
11.495	2.7966
11.469	2.7988
11.444	2.8108
11.419	2.8364
11.394	2.8713
11.369	2.8999
11.344	2.9160
11.319	2.9358
11.294	2.9370
11.270	2.9495
11.245	2.9731
11.221	2.9888
11.197	3.0000
11.173	3.0325
11.149	3.0574
11.125	3.0505
11.101	3.0574
11.077	3.0850
11.054	3.0886
11.030	3.0962
11.007	3.1079
10.983	3.1135
10.960	3.1238
10.937	3.1404
10.914	3.1521
10.891	3.1577
10.868	3.1719
10.846	3.1767
10.823	3.1785
10.800	3.1897
10.778	3.2136
10.755	3.2200
10.733	3.2253
10.711	3.2544
10.689	3.2659
10.667	3.2576
10.645	3.2620
10.623	3.2715
10.602	3.2681
10.580	3.2832
10.558	3.2998
10.537	3.2954
10.516	3.3005
10.494	3.3286
10.473	3.3364
10.452	3.3428
10.431	3.3618
10.410	3.3823
10.389	3.3977
10.368	3.4143
10.348	3.4521
10.327	3.4824
10.306	3.5127
10.286	3.5439
10.266	3.5723
10.245	3.6016
10.225	3.6409
10.205	3.6875
10.185	3.7244
10.165	3.7681
10.145	3.8059
10.125	3.8525
10.106	3.9036
10.086	3.9438
10.066	3.9924
10.047	4.0354
10.027	4.0747
10.008	4.1074
9.9887	4.1538
9.9695	4.1995
9.9504	4.2292
9.9313	4.2663
9.9123	4.3269
9.8934	4.3733
9.8746	4.4160
9.8558	4.4607
9.8371	4.5205
9.8185	4.5737
9.7999	4.6213
9.7814	4.6894
9.7630	4.7527
9.7447	4.7925
9.7264	4.8491
9.7082	4.9250
9.6900	4.9722
9.6719	5.0151
9.6539	5.0754
9.6360	5.1304
9.6181	5.1787
9.6003	5.2029
9.5825	5.2195
9.5649	5.2456
9.5472	5.2649
9.5297	5.2705
9.5122	5.2505
9.4948	5.2146
9.4774	5.1638
9.4601	5.0854
9.4429	5.0032
9.4257	4.9170
9.4086	4.8132
9.3916	4.7046
9.3746	4.5942
9.3577	4.4722
9.3408	4.3584
9.3240	4.2578
9.3073	4.1584
9.2906	4.0481
9.2740	3.9387
9.2574	3.8533
9.2409	3.7671
9.2245	3.6887
9.2081	3.6304
9.1918	3.5732
9.1755	3.5017
9.1593	3.4424
9.1431	3.4101
9.1270	3.3701
9.1110	3.3242
9.0950	3.2881
9.0791	3.2519
9.0632	3.2102
9.0474	3.1853
9.0316	3.1677
9.0159	3.1562
9.0003	3.1362
8.9847	3.1201
8.9691	3.1057
8.9536	3.0825
8.9382	3.0828
8.9228	3.0784
8.9075	3.0713
8.8922	3.0615
8.8770	3.0566
8.8618	3.0539
8.8467	3.0527
8.8316	3.0564
8.8166	3.0437
8.8016	3.0417
8.7867	3.0466
8.7718	3.0403
8.7570	3.0469
8.7422	3.0622
8.7275	3.0659
8.7129	3.0679
8.6982	3.0837
8.6837	3.1062
8.6692	3.1135
8.6547	3.1230
8.6403	3.1394
8.6259	3.1518
8.6116	3.1672
8.5973	3.1865
8.5830	3.2014
8.5688	3.2173
8.5547	3.2361
8.5406	3.2573
8.5266	3.2703
8.5126	3.2832
8.4986	3.2944
8.4847	3.2917
8.4708	3.2854
8.4570	3.2778
8.4432	3.2483
8.4295	3.2104
8.4158	3.1709
8.4022	3.1142
8.3886	3.0349
8.3750	2.9351
8.3615	2.8127
8.3481	2.6724
8.3347	2.5190
8.3213	2.3430
8.3079	2.1475
8.2946	1.9416
8.2814	1.7363
8.2682	1.5244
8.2550	1.3154
8.2419	1.1243
8.2288	0.94510
8.2158	0.78200
8.2028	0.64840
8.1898	0.53690
8.1769	0.44120
8.1640	0.36180
8.1512	0.30660
8.1384	0.26610
8.1256	0.23460
8.1129	0.21870
8.1002	0.20480
8.0876	0.20070
8.0750	0.20950
8.0624	0.21170
8.0499	0.22510
8.0374	0.24660
8.0250	0.26100
8.0126	0.27510
8.0002	0.29050
7.9879	0.30930
7.9756	0.33690
7.9634	0.35640
7.9512	0.37870
7.9390	0.40580
7.9268	0.42680
7.9147	0.44580
7.9027	0.46610
7.8906	0.49070
7.8786	0.51440
7.8667	0.53490
7.8548	0.56350
7.8429	0.59130
7.8310	0.61080
7.8192	0.62700
7.8075	0.64450
7.7957	0.66970
7.7840	0.69920
7.7723	0.72050
7.7607	0.74070
7.7491	0.76860
7.7375	0.78950
7.7260	0.80490
7.7145	0.82230
7.7031	0.84230
7.6916	0.86430
7.6802	0.88350
7.6689	0.90160
7.6575	0.92480
7.6462	0.94600
7.6350	0.95650
7.6238	0.97750
7.6126	1.0039
7.6014	1.0222
7.5903	1.0352
7.5792	1.0496
7.5681	1.0735
7.5571	1.0969
7.5461	1.1086
7.5351	1.1216
7.5242	1.1399
7.5133	1.1545
7.5024	1.1687
7.4916	1.1868
7.4807	1.2053
7.4700	1.2195
7.4592	1.2307
7.4485	1.2454
7.4378	1.2615
7.4272	1.2793
7.4165	1.2939
7.4059	1.3064
7.3954	1.3235
7.3848	1.3372
7.3743	1.3518
7.3639	1.3684
7.3534	1.3791
7.3430	1.3892
7.3326	1.4019
7.3223	1.4121
7.3119	1.4224
7.3016	1.4351
7.2914	1.4480
7.2811	1.4580
7.2709	1.4678
7.2607	1.4797
7.2506	1.4941
7.2404	1.5046
7.2303	1.5068
7.2203	1.5142
7.2102	1.5298
7.2002	1.5464
7.1902	1.5613
7.1803	1.5713
7.1703	1.5718
7.1604	1.5774
7.1506	1.5911
7.1407	1.6030
7.1309	1.6135
7.1211	1.6211
7.1113	1.6287
7.1016	1.6304
7.0919	1.6370
7.0822	1.6521
7.0725	1.6638
7.0629	1.6702
7.0533	1.6699
7.0437	1.6736
7.0341	1.6858
7.0246	1.6946
7.0151	1.7046
7.0056	1.7117
6.9962	1.7158
6.9867	1.7285
6.9773	1.7383
6.9679	1.7412
6.9586	1.7441
6.9493	1.7544
6.9400	1.7646
6.9307	1.7695
6.9214	1.7771
6.9122	1.7859
6.9030	1.7900
6.8938	1.7954
6.8847	1.8018
6.8755	1.8003
6.8664	1.7900
6.8573	1.8013
6.8483	1.8213
6.8393	1.8264
6.8302	1.8252
6.8213	1.8315
6.8123	1.8398
6.8034	1.8359
6.7944	1.8394
6.7855	1.8479
6.7767	1.8603
6.7678	1.8696
6.7590	1.8672
6.7502	1.8655
6.7414	1.8767
6.7327	1.8816
6.7239	1.8850
6.7152	1.8911
6.7065	1.9038
6.6979	1.9204
6.6892	1.9206
6.6806	1.9172
6.6720	1.9241
6.6634	1.9353
6.6549	1.9458
6.6464	1.9424
6.6378	1.9336
6.6294	1.9387
6.6209	1.9531
6.6124	1.9636
6.6040	1.9741
6.5956	1.9763
6.5872	1.9768
6.5789	1.9763
6.5705	1.9783
6.5622	1.9902
6.5539	1.9922
6.5456	1.9914
6.5374	1.9927
6.5292	1.9949
6.5209	1.9927
6.5128	1.9944
6.5046	1.9873
6.4964	1.9756
6.4883	1.9780
6.4802	1.9875
6.4721	1.9910
6.4640	1.9897
6.4560	1.9910
6.4480	1.9946
6.4399	1.9880
6.4320	1.9783
6.4240	1.9665
6.4160	1.9434
6.4081	1.9443
6.4002	1.9597
6.3923	1.9563
6.3844	1.9475
6.3766	1.9370
6.3687	1.9260
6.3609	1.9255
6.3531	1.9189
6.3454	1.9006
6.3376	1.8906
6.3299	1.8914
6.3221	1.8828
6.3144	1.8660
6.3068	1.8542
6.2991	1.8459
6.2914	1.8298
6.2838	1.8123
6.2762	1.7964
6.2686	1.7766
6.2611	1.7556
6.2535	1.7427
6.2460	1.7305
6.2385	1.7068
6.2310	1.6865
6.2235	1.6699
6.2160	1.6423
6.2086	1.6140
6.2011	1.5913
6.1937	1.5586
6.1863	1.5186
6.1790	1.4968
6.1716	1.4792
6.1643	1.4543
6.1570	1.4246
6.1496	1.4023
6.1424	1.3755
6.1351	1.3516
6.1278	1.3337
6.1206	1.3020
6.1134	1.2673
6.1062	1.2480
6.0990	1.2327
6.0918	1.2136
6.0847	1.1921
6.0776	1.1677
6.0704	1.1455
6.0633	1.1309
6.0563	1.1147
6.0492	1.0908
6.0421	1.0847
6.0351	1.0852
6.0281	1.0757
6.0211	1.0684
6.0141	1.0684
6.0071	1.0679
6.0002	1.0640
5.9932	1.0603
5.9863	1.0615
5.9794	1.0723
5.9725	1.0876
5.9657	1.1060
5.9588	1.1255
5.9520	1.1377
5.9451	1.1562
5.9383	1.1758
5.9315	1.2070
5.9247	1.2424
5.9180	1.2747
5.9112	1.3101
5.9045	1.3442
5.8978	1.3789
5.8911	1.4287
5.8844	1.4697
5.8777	1.5083
5.8711	1.5623
5.8644	1.6116
5.8578	1.6616
5.8512	1.7109
5.8446	1.7566
5.8380	1.8003
5.8314	1.8384
5.8249	1.8696
5.8184	1.9172
5.8118	1.9678
5.8053	2.0105
5.7988	2.0539
5.7923	2.0901
5.7859	2.1287
5.7794	2.1655
5.7730	2.1907
5.7666	2.2175
5.7602	2.2622
5.7538	2.2998
5.7474	2.3320
5.7410	2.3718
5.7347	2.4084
5.7283	2.4331
5.7220	2.4590
5.7157	2.4824
5.7094	2.5098
5.7031	2.5439
5.6969	2.5747
5.6906	2.5974
5.6844	2.6223
5.6782	2.6465
5.6719	2.6719
5.6657	2.6955
5.6596	2.7158
5.6534	2.7351
5.6472	2.7497
5.6411	2.7693
5.6349	2.8013
5.6288	2.8235
5.6227	2.8398
5.6166	2.8603
5.6106	2.8769
5.6045	2.8904
5.5984	2.9136
5.5924	2.9429
5.5864	2.9556
5.5804	2.9651
5.5744	2.9868
5.5684	3.0085
5.5624	3.0271
5.5564	3.0510
5.5505	3.0681
5.5445	3.0864
5.5386	3.1123
5.5327	3.1306
5.5268	3.1443
5.5209	3.1626
5.5151	3.1797
5.5092	3.1973
5.5033	3.2190
5.4975	3.2412
5.4917	3.2529
5.4859	3.2642
5.4801	3.2817
5.4743	3.3035
5.4685	3.3247
5.4628	3.3442
5.4570	3.3645
5.4513	3.3782
5.4455	3.3899
5.4398	3.4036
5.4341	3.4192
5.4284	3.4287
5.4228	3.4368
5.4171	3.4570
5.4114	3.4761
5.4058	3.4844
5.4002	3.4963
5.3945	3.5066
5.3889	3.5183
5.3833	3.5266
5.3778	3.5320
5.3722	3.5398
5.3666	3.5522
5.3611	3.5613
5.3555	3.5598
5.3500	3.5657
5.3445	3.5825
5.3390	3.5928
5.3335	3.5981
5.3280	3.6072
5.3225	3.6128
5.3171	3.6177
5.3116	3.6279
5.3062	3.6367
5.3008	3.6392
5.2954	3.6435
5.2900	3.6526
5.2846	3.6633
5.2792	3.6726
5.2738	3.6799
5.2684	3.6836
5.2631	3.6887
5.2578	3.6943
5.2524	3.7019
5.2471	3.7112
5.2418	3.7139
5.2365	3.7202
5.2312	3.7270
5.2260	3.7356
5.2207	3.7471
5.2154	3.7500
5.2102	3.7546
5.2050	3.7651
5.1998	3.7698
5.1945	3.7749
5.1893	3.7866
5.1842	3.7983
5.1790	3.8005
5.1738	3.8054
5.1686	3.8088
5.1635	3.8174
5.1584	3.8264
5.1532	3.8332
5.1481	3.8359
5.1430	3.8474
5.1379	3.8608
5.1328	3.8650
5.1277	3.8667
5.1227	3.8725
5.1176	3.8811
5.1126	3.8867
5.1075	3.8877
5.1025	3.8935
5.0975	3.8982
5.0925	3.9018
5.0875	3.9060
5.0825	3.9060
5.0775	3.9062
5.0726	3.9084
5.0676	3.9106
5.0627	3.9109
5.0577	3.9114
5.0528	3.9177
5.0479	3.9233
5.0430	3.9148
5.0380	3.9087
5.0332	3.9133
5.0283	3.9092
5.0234	3.9050
5.0185	3.9033
5.0137	3.8938
5.0088	3.8889
5.0040	3.8935
4.9992	3.8882
4.9944	3.8808
4.9896	3.8777
4.9848	3.8738
4.9800	3.8672
4.9752	3.8694
4.9704	3.8640
4.9657	3.8489
4.9609	3.8454
4.9562	3.8430
4.9514	3.8293
4.9467	3.8188
4.9420	3.8227
4.9373	3.8144
4.9326	3.8037
4.9279	3.8042
4.9232	3.8005
4.9186	3.7927
4.9139	3.7825
4.9092	3.7773
4.9046	3.7690
4.9000	3.7583
4.8953	3.7551
4.8907	3.7585
4.8861	3.7558
4.8815	3.7515
4.8769	3.7432
4.8723	3.7349
4.8678	3.7344
4.8632	3.7312
4.8586	3.7283
4.8541	3.7212
4.8495	3.7131
4.8450	3.7068
4.8405	3.6982
4.8360	3.6963
4.8315	3.6958
4.8270	3.6936
4.8225	3.6831
4.8180	3.6755
4.8135	3.6785
4.8090	3.6787
4.8046	3.6726
4.8001	3.6626
4.7957	3.6558
4.7913	3.6540
4.7868	3.6543
4.7824	3.6548
4.7780	3.6528
4.7736	3.6484
4.7692	3.6423
4.7648	3.6348
4.7605	3.6340
4.7561	3.6301
4.7517	3.6230
4.7474	3.6265
4.7431	3.6194
4.7387	3.6108
4.7344	3.6084
4.7301	3.6094
4.7258	3.6118
4.7215	3.6059
4.7172	3.5959
4.7129	3.5947
4.7086	3.5954
4.7043	3.5959
4.7000	3.5959
4.6958	3.5981
4.6915	3.5923
4.6873	3.5940
4.6831	3.5962
4.6788	3.5889
4.6746	3.5874
4.6704	3.5911
4.6662	3.5867
4.6620	3.5859
4.6578	3.5893
4.6536	3.5947
4.6495	3.5915
4.6453	3.5942
4.6411	3.5974
4.6370	3.5925
4.6328	3.5898
4.6287	3.5950
4.6246	3.6006
4.6205	3.6006
4.6163	3.5998
4.6122	3.6035
4.6081	3.6057
4.6040	3.6079
4.6000	3.6121
4.5959	3.6140
4.5918	3.6135
4.5877	3.6208
4.5837	3.6267
4.5796	3.6274
4.5756	3.6306
4.5716	3.6392
4.5675	3.6396
4.5635	3.6394
4.5595	3.6457
4.5555	3.6550
4.5515	3.6599
4.5475	3.6609
4.5435	3.6645
4.5395	3.6753
4.5356	3.6872
4.5316	3.6926
4.5276	3.6960
4.5237	3.6990
4.5197	3.7043
4.5158	3.7087
4.5119	3.7163
4.5080	3.7268
4.5040	3.7363
4.5001	3.7383
4.4962	3.7451
4.4923	3.7624
4.4884	3.7668
4.4846	3.7705
4.4807	3.7851
4.4768	3.7971
4.4730	3.8025
4.4691	3.8071
4.4652	3.8140
4.4614	3.8296
4.4576	3.8450
4.4537	3.8445
4.4499	3.8459
4.4461	3.8635
4.4423	3.8750
4.4385	3.8794
4.4347	3.8943
4.4309	3.9084
4.4271	3.9180
4.4233	3.9270
4.4196	3.9436
4.4158	3.9556
4.4120	3.9595
4.4083	3.9717
4.4045	3.9917
4.4008	4.0063
4.3971	4.0198
4.3934	4.0308
4.3896	4.0422
4.3859	4.0539
4.3822	4.0720
4.3785	4.0818
4.3748	4.0928
4.3711	4.1121
4.3674	4.1301
4.3638	4.1401
4.3601	4.1494
4.3564	4.1662
4.3528	4.1855
4.3491	4.2004
4.3455	4.2192
4.3418	4.2349
4.3382	4.2439
4.3346	4.2634
4.3310	4.2842
4.3273	4.3013
4.3237	4.3174
4.3201	4.3328
4.3165	4.3481
4.3129	4.3630
4.3094	4.3816
4.3058	4.4001
4.3022	4.4160
4.2986	4.4333
4.2951	4.4548
4.2915	4.4697
4.2880	4.4890
4.2844	4.5166
4.2809	4.5293
4.2774	4.5422
4.2738	4.5664
4.2703	4.5893
4.2668	4.6050
4.2633	4.6257
4.2598	4.6492
4.2563	4.6621
4.2528	4.6824
4.2493	4.7090
4.2458	4.7266
4.2424	4.7458
4.2389	4.7688
4.2354	4.7900
4.2320	4.8093
4.2285	4.8266
4.2251	4.8486
4.2216	4.8735
4.2182	4.8926
4.2148	4.9097
4.2113	4.9275
4.2079	4.9490
4.2045	4.9687
4.2011	4.9892
4.1977	5.0149
4.1943	5.0354
4.1909	5.0588
4.1875	5.0803
4.1841	5.1003
4.1808	5.1230
4.1774	5.1409
4.1740	5.1570
4.1707	5.1855
4.1673	5.2170
4.1640	5.2341
4.1606	5.2534
4.1573	5.2783
4.1540	5.2932
4.1506	5.3061
4.1473	5.3298
4.1440	5.3559
4.1407	5.3796
4.1374	5.4031
4.1341	5.4182
4.1308	5.4338
4.1275	5.4582
4.1242	5.4851
4.1209	5.5051
4.1177	5.5232
4.1144	5.5456
4.1111	5.5640
4.1079	5.5852
4.1046	5.6145
4.1014	5.6328
4.0981	5.6431
4.0949	5.6628
4.0917	5.6929
4.0884	5.7129
4.0852	5.7285
4.0820	5.7495
4.0788	5.7707
4.0756	5.7917
4.0724	5.8132
4.0692	5.8279
4.0660	5.8440
4.0628	5.8586
4.0596	5.8833
4.0565	5.8992
4.0533	5.9109
4.0501	5.9341
4.0470	5.9592
4.0438	5.9765
4.0406	5.9949
4.0375	6.0095
4.0344	6.0156
4.0312	6.0351
4.0281	6.0598
4.0250	6.0725
4.0218	6.0837
4.0187	6.0991
4.0156	6.1128
4.0125	6.1255
4.0094	6.1404
4.0063	6.1577
4.0032	6.1684
4.0001	6.1782
3.9970	6.1924
3.9940	6.2002
3.9909	6.2136
3.9878	6.2290
3.9847	6.2356
3.9817	6.2478
3.9786	6.2597
3.9756	6.2681
3.9725	6.2746
3.9695	6.2861
3.9665	6.2983
3.9634	6.3054
3.9604	6.3132
3.9574	6.3259
3.9544	6.3286
3.9513	6.3291
3.9483	6.3379
3.9453	6.3437
3.9423	6.3432
3.9393	6.3501
3.9363	6.3652
3.9333	6.3681
3.9304	6.3699
3.9274	6.3813
3.9244	6.3830
3.9214	6.3799
3.9185	6.3867
3.9155	6.3923
3.9126	6.3857
3.9096	6.3857
3.9067	6.3962
3.9037	6.3916
3.9008	6.3857
3.8979	6.3962
3.8949	6.3933
3.8920	6.3855
3.8891	6.3882
3.8862	6.3857
3.8833	6.3808
3.8804	6.3740
3.8775	6.3733
3.8746	6.3679
3.8717	6.3650
3.8688	6.3694
3.8659	6.3620
3.8630	6.3520
3.8601	6.3518
3.8573	6.3493
3.8544	6.3403
3.8515	6.3318
3.8487	6.3235
3.8458	6.3120
3.8430	6.3027
3.8401	6.2995
3.8373	6.2988
3.8344	6.2864
3.8316	6.2732
3.8288	6.2632
3.8259	6.2519
3.8231	6.2444
3.8203	6.2392
3.8175	6.2229
3.8147	6.2068
3.8119	6.1977
3.8091	6.1872
3.8063	6.1824
3.8035	6.1699
3.8007	6.1482
3.7979	6.1301
3.7951	6.1223
3.7924	6.1128
3.7896	6.1006
3.7868	6.0796
3.7841	6.0671
3.7813	6.0527
3.7785	6.0390
3.7758	6.0276
3.7730	6.0068
3.7703	5.9917
3.7676	5.9770
3.7648	5.9585
3.7621	5.9404
3.7594	5.9192
3.7566	5.9026
3.7539	5.8862
3.7512	5.8701
3.7485	5.8608
3.7458	5.8467
3.7431	5.8215
3.7404	5.8013
3.7377	5.7873
3.7350	5.7666
3.7323	5.7439
3.7296	5.7285
3.7269	5.7060
3.7242	5.6848
3.7216	5.6738
3.7189	5.6540
3.7162	5.6304
3.7136	5.6135
3.7109	5.5920
3.7083	5.5618
3.7056	5.5408
3.7030	5.5268
3.7003	5.5102
3.6977	5.4866
3.6950	5.4636
3.6924	5.4436
3.6898	5.4221
3.6872	5.4004
3.6845	5.3782
3.6819	5.3525
3.6793	5.3310
3.6767	5.3130
3.6741	5.2827
3.6715	5.2610
3.6689	5.2427
3.6663	5.2200
3.6637	5.2016
3.6611	5.1819
3.6585	5.1609
3.6560	5.1321
3.6534	5.1084
3.6508	5.0920
3.6482	5.0674
3.6457	5.0386
3.6431	5.0149
3.6406	4.9939
3.6380	4.9707
3.6355	4.9448
3.6329	4.9224
3.6304	4.8994
3.6278	4.8801
3.6253	4.8555
3.6227	4.8288
3.6202	4.8013
3.6177	4.7803
3.6152	4.7580
3.6127	4.7351
3.6101	4.7131
3.6076	4.6916
3.6051	4.6728
3.6026	4.6457
3.6001	4.6235
3.5976	4.5964
3.5951	4.5710
3.5926	4.5466
3.5901	4.5207
3.5876	4.4973
3.5852	4.4741
3.5827	4.4538
3.5802	4.4358
3.5777	4.4087
3.5753	4.3833
3.5728	4.3647
3.5704	4.3389
3.5679	4.3159
3.5654	4.2932
3.5630	4.2629
3.5605	4.2378
3.5581	4.2207
3.5557	4.1941
3.5532	4.1745
3.5508	4.1562
3.5484	4.1284
3.5459	4.1003
3.5435	4.0830
3.5411	4.0652
3.5387	4.0400
3.5363	4.0124
3.5338	3.9912
3.5314	3.9695
3.5290	3.9451
3.5266	3.9272
3.5242	3.9021
3.5218	3.8728
3.5195	3.8537
3.5171	3.8357
3.5147	3.8144
3.5123	3.7856
3.5099	3.7598
3.5075	3.7351
3.5052	3.7156
3.5028	3.6938
3.5004	3.6699
3.4981	3.6531
3.4957	3.6365
3.4934	3.6191
3.4910	3.5989
3.4887	3.5813
3.4863	3.5635
3.4840	3.5430
3.4816	3.5190
3.4793	3.4961
3.4770	3.4795
3.4746	3.4629
3.4723	3.4438
3.4700	3.4216
3.4677	3.3977
3.4653	3.3855
3.4630	3.3735
3.4607	3.3498
3.4584	3.3301
3.4561	3.3086
3.4538	3.2827
3.4515	3.2712
3.4492	3.2571
3.4469	3.2312
3.4446	3.2107
3.4423	3.1955
3.4400	3.1748
3.4378	3.1575
3.4355	3.1318
3.4332	3.1101
3.4309	3.0942
3.4287	3.0747
3.4264	3.0500
3.4241	3.0303
3.4219	3.0139
3.4196	3.0024
3.4174	2.9853
3.4151	2.9673
3.4129	2.9578
3.4106	2.9416
3.4084	2.9194
3.4061	2.9040
3.4039	2.8977
3.4017	2.8821
3.3994	2.8574
3.3972	2.8384
3.3950	2.8276
3.3928	2.8108
3.3906	2.7942
3.3883	2.7849
3.3861	2.7707
3.3839	2.7495
3.3817	2.7351
3.3795	2.7256
3.3773	2.7158
3.3751	2.6982
3.3729	2.6755
3.3707	2.6638
3.3685	2.6572
3.3663	2.6382
3.3641	2.6208
3.3620	2.6062
3.3598	2.5950
3.3576	2.5791
3.3554	2.5601
3.3533	2.5469
3.3511	2.5400
3.3489	2.5276
3.3468	2.5093
3.3446	2.4934
3.3425	2.4861
3.3403	2.4795
3.3382	2.4658
3.3360	2.4458
3.3339	2.4250
3.3317	2.4155
3.3296	2.4111
3.3274	2.4023
3.3253	2.3838
3.3232	2.3677
3.3210	2.3535
3.3189	2.3369
3.3168	2.3274
3.3147	2.3174
3.3126	2.3032
3.3104	2.2869
3.3083	2.2756
3.3062	2.2698
3.3041	2.2615
3.3020	2.2483
3.2999	2.2351
3.2978	2.2241
3.2957	2.2146
3.2936	2.2012
3.2915	2.1907
3.2894	2.1799
3.2874	2.1706
3.2853	2.1558
3.2832	2.1372
3.2811	2.1255
3.2790	2.1235
3.2770	2.1235
3.2749	2.1081
3.2728	2.0874
3.2708	2.0774
3.2687	2.0784
3.2666	2.0684
3.2646	2.0488
3.2625	2.0408
3.2605	2.0373
3.2584	2.0247
3.2564	2.0071
3.2543	1.9993
3.2523	1.9949
3.2503	1.9912
3.2482	1.9822
3.2462	1.9646
3.2442	1.9529
3.2421	1.9507
3.2401	1.9421
3.2381	1.9343
3.2361	1.9214
3.2340	1.9136
3.2320	1.9019
3.2300	1.8892
3.2280	1.8784
3.2260	1.8652
3.2240	1.8633
3.2220	1.8560
3.2200	1.8457
3.2180	1.8435
3.2160	1.8335
3.2140	1.8164
3.2120	1.8101
3.2100	1.8064
3.2080	1.7920
3.2060	1.7817
3.2040	1.7790
3.2021	1.7742
3.2001	1.7590
3.1981	1.7507
3.1961	1.7495
3.1942	1.7446
3.1922	1.7322
3.1902	1.7183
3.1883	1.7087
3.1863	1.7031
3.1844	1.7026
3.1824	1.6982
3.1805	1.6868
3.1785	1.6765
3.1766	1.6755
3.1746	1.6689
3.1727	1.6580
3.1707	1.6575
3.1688	1.6538
3.1669	1.6406
3.1649	1.6277
3.1630	1.6208
3.1611	1.6160
3.1591	1.6118
3.1572	1.6091
3.1553	1.6011
3.1534	1.5872
3.1515	1.5762
3.1495	1.5708
3.1476	1.5706
3.1457	1.5640
3.1438	1.5522
3.1419	1.5522
3.1400	1.5435
3.1381	1.5320
3.1362	1.5220
3.1343	1.5171
3.1324	1.5151
3.1305	1.5078
3.1286	1.5015
3.1268	1.4973
3.1249	1.4910
3.1230	1.4797
3.1211	1.4712
3.1192	1.4658
3.1174	1.4570
3.1155	1.4543
3.1136	1.4526
3.1117	1.4524
3.1099	1.4453
3.1080	1.4404
3.1061	1.4333
3.1043	1.4287
3.1024	1.4268
3.1006	1.4170
3.0987	1.4006
3.0969	1.3936
3.0950	1.3979
3.0932	1.4040
3.0913	1.3994
3.0895	1.3843
3.0876	1.3782
3.0858	1.3723
3.0840	1.3672
3.0821	1.3655
3.0803	1.3645
3.0785	1.3699
3.0766	1.3621
3.0748	1.3508
3.0730	1.3418
3.0712	1.3396
3.0694	1.3379
3.0675	1.3325
3.0657	1.3262
3.0639	1.3284
3.0621	1.3332
3.0603	1.3340
3.0585	1.3245
3.0567	1.3118
3.0549	1.3057
3.0531	1.3061
3.0513	1.3052
3.0495	1.3037
3.0477	1.2993
3.0459	1.2922
3.0441	1.2883
3.0423	1.2971
3.0406	1.3064
3.0388	1.3027
3.0370	1.2954
3.0352	1.2895
3.0334	1.2859
3.0317	1.2827
3.0299	1.2849
3.0281	1.2810
3.0264	1.2749
3.0246	1.2710
3.0228	1.2766
3.0211	1.2727
3.0193	1.2624
3.0176	1.2583
3.0158	1.2615
3.0140	1.2610
3.0123	1.2524
3.0105	1.2454
3.0088	1.2454
3.0070	1.2498
3.0053	1.2510
3.0036	1.2451
3.0018	1.2373
3.0001	1.2344
2.9984	1.2297
2.9966	1.2295
2.9949	1.2256
2.9932	1.2185
2.9914	1.2175
2.9897	1.2175
2.9880	1.2180
2.9863	1.2134
2.9845	1.2036
2.9828	1.1978
2.9811	1.2004
2.9794	1.1970
2.9777	1.1887
2.9760	1.1836
2.9743	1.1804
2.9726	1.1733
2.9709	1.1711
2.9692	1.1641
2.9675	1.1653
2.9658	1.1680
2.9641	1.1655
2.9624	1.1553
2.9607	1.1521
2.9590	1.1477
2.9573	1.1409
2.9556	1.1374
2.9539	1.1353
2.9523	1.1357
2.9506	1.1328
2.9489	1.1279
2.9472	1.1240
2.9455	1.1216
2.9439	1.1240
2.9422	1.1230
2.9405	1.1165
2.9389	1.1111
2.9372	1.1111
2.9355	1.1123
2.9339	1.1052
2.9322	1.1038
2.9306	1.1030
2.9289	1.0923
2.9272	1.0881
2.9256	1.0869
2.9239	1.0847
2.9223	1.0925
2.9207	1.0915
2.9190	1.0903
2.9174	1.0942
2.9157	1.0859
2.9141	1.0779
2.9124	1.0776
2.9108	1.0798
2.9092	1.0752
2.9075	1.0698
2.9059	1.0652
2.9043	1.0640
2.9027	1.0669
2.9010	1.0679
2.8994	1.0732
2.8978	1.0749
2.8962	1.0659
2.8946	1.0623
2.8929	1.0591
2.8913	1.0559
2.8897	1.0649
2.8881	1.0745
2.8865	1.0718
2.8849	1.0649
2.8833	1.0698
2.8817	1.0696
2.8801	1.0640
2.8785	1.0586
2.8769	1.0613
2.8753	1.0564
2.8737	1.0481
2.8721	1.0461
2.8705	1.0510
2.8689	1.0561
2.8673	1.0522
2.8658	1.0435
2.8642	1.0435
2.8626	1.0454
2.8610	1.0378
2.8594	1.0256
2.8579	1.0242
2.8563	1.0310
2.8547	1.0273
2.8531	1.0254
2.8516	1.0315
2.8500	1.0310
2.8484	1.0269
2.8469	1.0266
2.8453	1.0247
2.8437	1.0166
2.8422	1.0176
2.8406	1.0207
2.8391	1.0186
2.8375	1.0193
2.8360	1.0217
2.8344	1.0183
2.8329	1.0181
2.8313	1.0215
2.8298	1.0129
2.8282	1.0071
2.8267	1.0110
2.8252	1.0166
2.8236	1.0139
2.8221	1.0061
2.8205	1.0085
2.8190	1.0127
2.8175	1.0115
2.8159	1.0076
2.8144	1.0012
2.8129	1.0007
2.8114	1.0083
2.8098	1.0039
2.8083	0.99660
2.8068	1.0000
2.8053	1.0002
2.8038	0.99340
2.8022	0.98830
2.8007	0.99360
2.7992	0.99950
2.7977	0.99320
2.7962	0.98880
2.7947	0.99950
2.7932	0.99510
2.7917	0.99120
2.7902	0.99760
2.7887	0.99510
2.7872	0.99560
2.7857	0.99980
2.7842	1.0022
2.7827	1.0034
2.7812	1.0078
2.7797	1.0195
2.7782	1.0149
2.7767	1.0107
2.7752	1.0176
2.7738	1.0210
2.7723	1.0212
2.7708	1.0254
2.7693	1.0415
2.7678	1.0557
2.7664	1.0598
2.7649	1.0561
2.7634	1.0684
2.7619	1.0820
2.7605	1.0898
2.7590	1.1040
2.7575	1.1155
2.7561	1.1284
2.7546	1.1399
2.7531	1.1545
2.7517	1.1758
2.7502	1.1936
2.7488	1.2170
2.7473	1.2468
2.7458	1.2822
2.7444	1.3054
2.7429	1.3274
2.7415	1.3572
2.7400	1.3826
2.7386	1.4250
2.7371	1.4724
2.7357	1.5154
2.7343	1.5576
2.7328	1.6128
2.7314	1.6565
2.7299	1.7080
2.7285	1.7607
2.7271	1.8061
2.7256	1.8574
2.7242	1.9145
2.7228	1.9839
2.7213	2.0308
2.7199	2.0703
2.7185	2.1394
2.7171	2.2051
2.7156	2.2595
2.7142	2.3154
2.7128	2.3767
2.7114	2.4214
2.7100	2.4770
2.7085	2.5427
2.7071	2.5920
2.7057	2.6499
2.7043	2.7134
2.7029	2.7666
2.7015	2.8035
2.7001	2.8462
2.6987	2.9058
2.6973	2.9673
2.6959	3.0039
2.6945	3.0349
2.6931	3.0723
2.6917	3.1377
2.6903	3.2046
2.6889	3.2373
2.6875	3.2671
2.6861	3.3159
2.6847	3.3540
2.6833	3.3862
2.6819	3.4253
2.6805	3.4692
2.6791	3.5122
2.6778	3.5493
2.6764	3.5613
2.6750	3.6069
2.6736	3.6697
2.6722	3.7002
2.6709	3.6929
2.6695	3.7202
2.6681	3.7676
2.6667	3.7895
2.6654	3.8205
2.6640	3.8603
2.6626	3.9077
2.6613	3.9331
2.6599	3.9712
2.6585	3.9973
2.6572	4.0163
2.6558	4.0359
2.6545	4.0561
2.6531	4.0820
2.6517	4.1155
2.6504	4.1394
2.6490	4.1553
2.6477	4.1824
2.6463	4.2043
2.6450	4.2219
2.6436	4.2495
2.6423	4.2722
2.6409	4.2788
2.6396	4.2939
2.6382	4.3108
2.6369	4.3291
2.6356	4.3557
2.6342	4.3728
2.6329	4.3867
2.6315	4.3989
2.6302	4.3953
2.6289	4.4092
2.6275	4.4316
2.6262	4.4473
2.6249	4.4763
2.6236	4.4961
2.6222	4.4993
2.6209	4.4910
2.6196	4.5017
2.6183	4.5224
2.6169	4.5198
2.6156	4.5391
2.6143	4.5627
2.6130	4.5688
2.6117	4.5791
2.6103	4.5849
2.6090	4.5776
2.6077	4.5830
2.6064	4.5981
2.6051	4.5886
2.6038	4.6013
2.6025	4.6228
2.6012	4.6296
2.5999	4.6367
2.5986	4.6462
2.5973	4.6474
2.5960	4.6340
2.5947	4.6045
2.5934	4.6299
2.5921	4.6692
2.5908	4.6743
2.5895	4.6687
2.5882	4.6731
2.5869	4.6860
2.5856	4.6963
2.5843	4.6902
2.5830	4.6890
2.5817	4.7038
2.5805	4.7090
2.5792	4.7095
2.5779	4.7009
2.5766	4.7129
2.5753	4.7324
2.5741	4.7209
2.5728	4.7063
2.5715	4.7297
2.5702	4.7358
2.5690	4.7283
2.5677	4.7385
2.5664	4.7419
2.5651	4.7195
2.5639	4.7134
2.5626	4.7195
2.5613	4.7148
2.5601	4.7229
2.5588	4.7446
2.5575	4.7434
2.5563	4.7336
2.5550	4.7373
2.5538	4.7441
2.5525	4.7451
2.5513	4.7471
2.5500	4.7573
2.5487	4.7505
2.5475	4.7446
2.5462	4.7580
2.5450	4.7634
2.5437	4.7612
2.5425	4.7585
2.5413	4.7715
2.5400	4.7878
2.5388	4.7937
2.5375	4.7908
2.5363	4.7800
2.5350	4.7847
2.5338	4.8035
2.5326	4.8052
2.5313	4.8000
2.5301	4.8232
2.5289	4.8349
2.5276	4.8188
2.5264	4.8059
2.5252	4.8266
2.5239	4.8498
2.5227	4.8584
2.5215	4.8628
2.5202	4.8642
2.5190	4.8738
2.5178	4.8835
2.5166	4.8806
2.5154	4.8926
2.5141	4.9123
2.5129	4.9221
2.5117	4.9299
2.5105	4.9321
2.5093	4.9416
2.5081	4.9568
2.5068	4.9680
2.5056	4.9927
2.5044	5.0127
2.5032	5.0205
2.5020	5.0242
2.5008	5.0244
2.4996	5.0320
2.4984	5.0539
2.4972	5.0742
2.4960	5.0959
2.4948	5.0952
2.4936	5.0947
2.4924	5.1223
2.4912	5.1516
2.4900	5.1589
2.4888	5.1599
2.4876	5.1772
2.4864	5.1921
2.4852	5.2038
2.4840	5.2173
2.4828	5.2358
2.4816	5.2641
2.4805	5.2881
2.4793	5.2949
2.4781	5.2978
2.4769	5.3193
2.4757	5.3562
2.4745	5.3596
2.4734	5.3655
2.4722	5.3838
2.4710	5.3972
2.4698	5.4099
2.4686	5.4258
2.4675	5.4468
2.4663	5.4702
2.4651	5.4846
2.4640	5.5100
2.4628	5.5295
2.4616	5.5307
2.4604	5.5478
2.4593	5.5708
2.4581	5.5947
2.4569	5.6103
2.4558	5.6186
2.4546	5.6384
2.4535	5.6643
2.4523	5.6577
2.4511	5.6745
2.4500	5.7097
2.4488	5.7273
2.4477	5.7283
2.4465	5.7431
2.4454	5.7571
2.4442	5.7893
2.4431	5.8157
2.4419	5.8230
2.4408	5.8281
2.4396	5.8503
2.4385	5.8691
2.4373	5.8845
2.4362	5.9209
2.4350	5.9526
2.4339	5.9673
2.4327	5.9848
2.4316	6.0117
2.4305	6.0234
2.4293	6.0517
2.4282	6.0727
2.4270	6.0903
2.4259	6.1079
2.4248	6.1345
2.4236	6.1670
2.4225	6.1987
2.4214	6.2280
2.4202	6.2615
2.4191	6.2739
2.4180	6.2934
2.4169	6.3254
2.4157	6.3474
2.4146	6.3764
2.4135	6.3984
2.4124	6.4414
2.4112	6.4900
2.4101	6.5161
2.4090	6.5535
2.4079	6.5879
2.4068	6.6228
2.4056	6.6484
2.4045	6.6643
2.4034	6.6814
2.4023	6.7153
2.4012	6.7654
2.4001	6.8076
2.3990	6.8464
2.3979	6.8738
2.3967	6.8882
2.3956	6.9299
2.3945	6.9751
2.3934	6.9949
2.3923	7.0254
2.3912	7.0657
2.3901	7.1052
2.3890	7.1477
2.3879	7.1963
2.3868	7.2197
2.3857	7.2490
2.3846	7.2900
2.3835	7.3127
2.3824	7.3408
2.3813	7.3850
2.3802	7.4143
2.3791	7.4702
2.3781	7.5071
2.3770	7.5337
2.3759	7.5683
2.3748	7.6047
2.3737	7.6245
2.3726	7.6638
2.3715	7.7004
2.3704	7.7400
2.3694	7.7712
2.3683	7.7910
2.3672	7.8220
2.3661	7.8572
2.3650	7.8894
2.3640	7.9297
2.3629	7.9607
2.3618	7.9878
2.3607	8.0002
2.3597	8.0325
2.3586	8.0823
2.3575	8.1240
2.3564	8.1452
2.3554	8.1743
2.3543	8.1911
2.3532	8.2112
2.3522	8.2536
2.3511	8.2981
2.3500	8.3198
2.3490	8.3357
2.3479	8.3567
2.3468	8.3733
2.3458	8.4116
2.3447	8.4551
2.3436	8.4616
2.3426	8.4687
2.3415	8.5017
2.3405	8.5410
2.3394	8.5671
2.3384	8.5815
2.3373	8.5976
2.3363	8.6289
2.3352	8.6465
2.3342	8.6797
2.3331	8.6963
2.3321	8.7087
2.3310	8.7409
2.3300	8.7663
2.3289	8.7859
2.3279	8.7961
2.3268	8.8232
2.3258	8.8518
2.3247	8.8674
2.3237	8.8982
2.3226	8.9016
2.3216	8.9065
2.3206	8.9299
2.3195	8.9565
2.3185	8.9836
2.3175	9.0024
2.3164	9.0249
2.3154	9.0349
2.3144	9.0581
2.3133	9.0876
2.3123	9.0923
2.3113	9.1125
2.3102	9.1401
2.3092	9.1582
2.3082	9.1675
2.3071	9.1794
2.3061	9.1936
2.3051	9.1980
2.3041	9.2195
2.3030	9.2532
2.3020	9.2553
2.3010	9.2671
2.3000	9.2776
2.2990	9.3005
2.2979	9.3183
2.2969	9.3156
2.2959	9.3098
2.2949	9.3369
2.2939	9.3554
2.2929	9.3625
2.2918	9.3908
2.2908	9.4060
2.2898	9.4116
2.2888	9.4138
2.2878	9.4165
2.2868	9.4267
2.2858	9.4426
2.2848	9.4604
2.2838	9.4746
2.2828	9.4934
2.2818	9.5034
2.2808	9.5017
2.2798	9.5068
2.2787	9.5193
2.2777	9.5107
2.2767	9.5302
2.2757	9.5429
2.2747	9.5608
2.2738	9.5974
2.2728	9.6035
2.2718	9.5832
2.2708	9.5727
2.2698	9.5898
2.2688	9.6147
2.2678	9.6184
2.2668	9.6057
2.2658	9.6015
2.2648	9.6001
2.2638	9.6338
2.2628	9.6657
2.2618	9.6699
2.2609	9.6489
2.2599	9.6584
2.2589	9.6855
2.2579	9.6843
2.2569	9.6936
2.2559	9.6936
2.2550	9.6726
2.2540	9.6982
2.2530	9.7177
2.2520	9.7121
2.2510	9.7182
2.2501	9.7334
2.2491	9.7322
2.2481	9.7016
2.2471	9.6919
2.2462	9.7148
2.2452	9.7285
2.2442	9.7270
2.2433	9.7146
2.2423	9.7143
2.2413	9.7322
2.2403	9.7363
2.2394	9.7246
2.2384	9.7375
2.2374	9.7341
2.2365	9.7531
2.2355	9.7629
2.2345	9.7502
2.2336	9.7422
2.2326	9.7419
2.2317	9.7365
2.2307	9.7427
2.2297	9.7470
2.2288	9.7351
2.2278	9.7429
2.2269	9.7400
2.2259	9.7309
2.2250	9.7314
2.2240	9.7319
2.2231	9.7402
2.2221	9.7304
2.2211	9.7397
2.2202	9.7507
2.2192	9.7522
2.2183	9.7610
2.2173	9.7622
2.2164	9.7370
2.2155	9.7370
2.2145	9.7378
2.2136	9.7219
2.2126	9.7156
2.2117	9.7495
2.2107	9.7680
2.2098	9.7363
2.2088	9.7136
2.2079	9.6985
2.2070	9.6997
2.2060	9.7112
2.2051	9.7199
2.2041	9.7073
2.2032	9.7153
2.2023	9.7009
2.2013	9.6780
2.2004	9.6870
2.1995	9.6938
2.1985	9.6968
2.1976	9.6902
2.1967	9.6911
2.1957	9.7058
2.1948	9.7024
2.1939	9.6848
2.1930	9.6960
2.1920	9.7046
2.1911	9.7090
2.1902	9.7009
2.1893	9.6946
2.1883	9.6975
2.1874	9.6894
2.1865	9.6826
2.1856	9.6616
2.1846	9.6523
2.1837	9.6704
2.1828	9.6772
2.1819	9.6692
2.1810	9.6521
2.1800	9.6291
2.1791	9.6118
2.1782	9.6408
2.1773	9.6538
2.1764	9.6108
2.1755	9.6140
2.1746	9.6430
2.1736	9.6406
2.1727	9.6137
2.1718	9.5979
2.1709	9.6015
2.1700	9.5986
2.1691	9.6086
2.1682	9.6301
2.1673	9.6311
2.1664	9.6145
2.1655	9.6316
2.1646	9.6245
2.1637	9.6111
2.1628	9.5954
2.1619	9.5801
2.1610	9.6072
2.1601	9.5901
2.1592	9.5805
2.1583	9.5893
2.1574	9.5622
2.1565	9.5454
2.1556	9.5620
2.1547	9.5769
2.1538	9.5390
2.1529	9.5210
2.1520	9.5229
2.1511	9.5322
2.1502	9.5342
2.1493	9.5090
2.1484	9.4978
2.1475	9.5097
2.1466	9.5027
2.1458	9.4914
2.1449	9.4785
2.1440	9.4892
2.1431	9.4834
2.1422	9.4663
2.1413	9.4851
2.1404	9.4641
2.1396	9.4419
2.1387	9.4592
2.1378	9.4428
2.1369	9.4350
2.1360	9.4345
2.1352	9.4062
2.1343	9.4067
2.1334	9.4133
2.1325	9.4170
2.1316	9.4118
2.1308	9.4106
2.1299	9.4123
2.1290	9.3855
2.1281	9.3879
2.1273	9.3781
2.1264	9.3738
2.1255	9.3584
2.1247	9.3486
2.1238	9.3401
2.1229	9.3564
2.1220	9.3591
2.1212	9.3381
2.1203	9.3220
2.1194	9.3315
2.1186	9.3232
2.1177	9.3000
2.1168	9.3012
2.1160	9.3052
2.1151	9.3027
2.1143	9.3032
2.1134	9.3044
2.1125	9.2580
2.1117	9.2573
2.1108	9.2597
2.1100	9.2387
2.1091	9.2226
2.1082	9.2195
2.1074	9.2231
2.1065	9.2236
2.1057	9.2138
2.1048	9.2014
2.1040	9.1994
2.1031	9.2058
2.1023	9.1911
2.1014	9.1784
2.1005	9.1479
2.0997	9.1450
2.0988	9.1384
2.0980	9.1186
2.0971	9.1103
2.0963	9.1294
2.0955	9.1223
2.0946	9.1169
2.0938	9.1196
2.0929	9.1059
2.0921	9.0840
2.0912	9.0710
2.0904	9.0617
2.0895	9.0742
2.0887	9.0627
2.0879	9.0456
2.0870	9.0429
2.0862	9.0449
2.0853	9.0344
2.0845	9.0198
2.0837	9.0051
2.0828	8.9792
2.0820	8.9800
2.0812	8.9856
2.0803	8.9707
2.0795	8.9546
