Name:  Hedenbergite CaFe+2Si2O6
Type:  Mineral
Class:   Silicates
Subclass:  Inosilicates (Single chain Pyroxene Group)
Particle Size: Fine  (less than 2 Micrometers)
Sample No.: hedenber.1
Owner:  JHU
Wavelength Range:  IR
Origin: Eureka Mine, 2nd Level, Sub-level 1, 135 N, 645E, Ducktown, 
Tennesse, via the Smithsonian (sample no. NMNH 119197)
Description: The sample was made up of three large pieces and three 
small fragments, weighing altogether about 28 g.  All pieces are deep 
green and parts of single crystals.  They display a very small amount 
of veining.  Surfaces of the pieces have a veneer of contamination 
Ñprobably the same as the veining.  There is also an extremely small 
amount of sulphide contamination.
Measurement:  Transmission 
First Column:  X
Second Column:  Y  
X Units:  Wavelength (micrometers)
Y Units:  Transmittance (percent)
First X Value:  25.0442
Last X Value:  2.079
Number of X Values:  2287
Additional Information: hedenb1a.txt

25.04420302	49.3007
24.9237955	49.0624
24.80454022	49.3749
24.68642074	49.5936
24.5694209	49.0546
24.45358465	49.1522
24.3387763	49.9022
24.22504094	51.0975
24.11236361	52.6561
24.00072962	54.5897
23.89012454	55.9315
23.78053421	56.453
23.67194472	56.5936
23.56434244	56.6522
23.45771395	56.3397
23.35204611	55.9471
23.24732598	55.8143
23.14354087	55.2499
23.04067832	54.5741
22.93872607	53.8065
22.83767211	52.8475
22.7375046	51.3534
22.63821194	49.7362
22.53978272	47.9178
22.44220571	45.9081
22.3454699	43.9862
22.24956446	42.3612
22.15447875	40.7577
22.06020229	39.2538
21.96677306	38.0448
21.87408402	37.0097
21.7821739	36.2538
21.69103293	35.4784
21.60065148	34.6718
21.5110201	34.0331
21.42212949	33.496
21.33397051	33.0194
21.24653416	32.6972
21.15981159	32.5155
21.0737941	32.5312
20.98847313	32.6542
20.90384024	33.0097
20.81988716	33.6933
20.73660571	34.5663
20.65398787	35.8095
20.57202575	37.2147
20.49071156	38.7968
20.41003766	40.4335
20.3299965	42.0477
20.25058069	43.0194
20.1717829	43.5409
20.09359597	43.7147
20.01601281	43.3593
19.93906621	42.5331
19.8626695	41.5468
19.78685599	40.5399
19.71161901	39.6522
19.63695203	38.9735
19.56284859	38.6298
19.48930232	38.5058
19.41630698	38.6337
19.34385639	39.1386
19.27194448	39.7186
19.20056526	40.3593
19.12971284	41.0936
19.05938141	41.8886
18.98956523	42.6366
18.92025868	43.3534
18.85145618	43.9891
18.78315226	44.7401
18.71534153	45.7167
18.64801865	46.6893
18.58117838	47.6991
18.51481556	48.9501
18.44892507	50.3192
18.38350191	51.8339
18.31854111	53.5194
18.25407111	55.2381
18.19002023	57.0555
18.12641726	58.9022
18.06325753	60.7079
18.00053642	62.4286
17.93824937	64.0145
17.8763919	65.5291
17.81495958	66.9012
17.75394803	68.1356
17.69335296	69.2537
17.63317011	70.4725
17.57339529	71.5984
17.51402436	72.6492
17.45505324	73.6678
17.39647791	74.6434
17.3382944	75.5281
17.28049878	76.3875
17.2230872	77.0955
17.16605584	77.8103
17.10940093	78.5291
17.05311876	79.1873
16.99720566	79.6971
16.94165801	80.1502
16.88647225	80.6824
16.83167317	81.074
16.77720046	81.407
16.72307919	81.739
16.66930597	82.0242
16.61587747	82.0896
16.56279037	82.0818
16.51004141	82.0486
16.45762737	81.9246
16.40554507	81.8094
16.35379138	81.6814
16.30236319	81.4617
16.25125744	80.9754
16.20047111	80.3963
16.15000121	79.4353
16.0998448	78.1189
16.04999896	76.5057
16.00048641	74.6365
15.95125297	72.5843
15.90232158	70.5511
15.85368947	69.0452
15.80535391	68.2303
15.75731218	68.3572
15.70956162	69.4725
15.6620996	71.4261
15.61492349	73.6233
15.56803074	76.0291
15.52141878	78.285
15.47508511	80.2029
15.42902725	81.846
15.38324273	83.178
15.33772913	84.3069
15.29248405	85.012
15.24750513	85.5374
15.20279002	85.742
15.1583364	85.6385
15.114142	85.137
15.07020455	84.2093
15.02652181	82.8025
14.98309158	81.0662
14.93991168	79.2776
14.89700213	77.7464
14.85431629	77.3689
14.81187438	78.3211
14.76967431	80.2693
14.72771402	82.3123
14.68599147	84.1956
14.64450465	85.6663
14.60325156	86.7664
14.56223023	87.4422
14.52143873	87.9529
14.48087511	88.2634
14.44053748	88.4339
14.40042395	88.6345
14.36053266	88.908
14.32086177	89.1389
14.28140946	89.241
14.24217393	89.4241
14.20315338	89.553
14.16434607	89.5862
14.12575025	89.5549
14.0873642	89.5398
14.0491862	89.448
14.01121458	89.387
13.97344765	89.2185
13.93590321	89.053
13.89854065	88.8591
13.8613779	88.7029
13.82441336	88.447
13.78764544	88.2459
13.75107258	88.0061
13.71469324	87.8772
13.67850587	87.5921
13.64250897	87.3909
13.60670103	87.1023
13.57108057	86.7947
13.53564612	86.406
13.50039624	86.0921
13.46532947	85.7854
13.4304444	85.451
13.39573962	85.0628
13.36121373	84.6726
13.32686536	84.2605
13.29269314	83.7991
13.25869572	83.3987
13.22487175	83.0179
13.19121992	82.6097
13.15773892	82.1863
13.12442745	81.6795
13.09130135	81.1682
13.05832501	80.7557
13.02551438	80.3245
12.99286821	79.9241
12.96038529	79.408
12.92806437	78.8387
12.89590426	78.1912
12.86390376	77.7522
12.83206168	77.2366
12.80037684	76.762
12.7688481	76.2449
12.73747429	75.8543
12.70625427	75.4314
12.67518693	74.91
12.64427113	74.3382
12.61350579	73.908
12.58290562	73.3128
12.55243781	72.6277
12.52211719	71.9871
12.4919427	71.3543
12.46191328	70.7449
12.43202789	70.0784
12.40228549	69.3831
12.37268507	68.6717
12.34322561	67.8421
12.31390609	67.0291
12.28472554	66.1741
12.25568296	65.201
12.22677738	64.2581
12.19800782	63.3065
12.16937334	62.2972
12.14087298	61.1063
12.1125058	59.9378
12.08427087	58.6703
12.05616727	57.3563
12.02819409	55.9042
12.00035041	54.4964
11.97263534	52.8993
11.945048	51.2308
11.9175875	49.41
11.8902671	47.535
11.86305761	45.5961
11.83597236	43.5956
11.80901051	41.5668
11.78217122	39.6571
11.75545365	37.9965
11.72885698	36.4599
11.70238038	35.1024
11.67602305	33.9159
11.64978419	32.9789
11.62366299	32.2953
11.59765866	31.8163
11.57177043	31.6059
11.54599752	31.6493
11.52033916	31.955
11.49479458	32.5512
11.46936304	33.3417
11.44404378	34.2641
11.41883606	35.287
11.39373914	36.3573
11.3687523	37.3759
11.34387482	38.3729
11.31910597	39.3554
11.29444505	40.2621
11.26990406	41.1122
11.24545684	41.912
11.22111545	42.6434
11.19687921	43.2543
11.17274743	43.7645
11.14871946	44.1698
11.12479461	44.4613
11.10097222	44.6552
11.07725165	44.7684
11.05363222	44.6561
11.03011331	44.4476
11.00669427	44.0951
10.98337447	43.6464
10.96015327	43.0497
10.93703005	42.4213
10.9140042	41.8173
10.89107509	41.4359
10.86824213	41.3949
10.8455047	41.8773
10.82286221	42.9511
10.80031407	44.5931
10.77785969	46.7435
10.75549848	49.1009
10.73322986	51.2694
10.71106474	53.035
10.68897956	54.2743
10.66698525	54.7386
10.64508128	54.5008
10.62326708	53.7206
10.6015421	52.5589
10.5799058	51.1019
10.55835763	49.433
10.53689705	47.6473
10.51552354	45.8163
10.49423657	43.8578
10.4730356	41.9662
10.45192012	40.0927
10.43088962	38.3153
10.40994358	36.7248
10.38908149	35.4696
10.36830285	34.6847
10.34760717	34.5392
10.32699394	34.8957
10.30646267	35.581
10.28601287	36.4862
10.26564407	37.454
10.24535578	38.3332
10.22514752	39.0824
10.20502924	39.7196
10.1849796	40.2648
10.16500858	40.8576
10.14511574	41.6105
10.12530059	42.621
10.10556271	43.9218
10.08590162	45.5704
10.0663169	47.3846
10.04680808	49.2411
10.02737473	51.0587
10.00801642	52.869
9.98873271	54.4862
9.969523168	55.9989
9.950387369	57.3351
9.931324888	58.5428
9.912335307	59.5838
9.893427994	60.5138
9.874582922	61.2852
9.855809507	61.868
9.83710734	62.3006
9.818476015	62.5116
9.799915133	62.3897
9.781424293	61.9806
9.7630031	61.412
9.744651161	60.6563
9.726368087	59.8055
9.70815349	58.8622
9.690006986	57.8849
9.671928196	56.8399
9.653916739	55.7318
9.635972241	54.5799
9.618094328	53.3976
9.600282632	52.1249
9.582536785	50.7494
9.564856422	49.2479
9.547241181	47.6261
9.529690704	45.8427
9.512204634	43.9533
9.494782617	41.9921
9.477424301	40.0399
9.460138288	38.0839
9.4429063	36.182
9.425736975	34.328
9.408629972	32.6361
9.391584952	31.1137
9.374601579	29.8173
9.35767952	28.852
9.340818443	28.2563
9.324018018	28.0449
9.307277919	28.1977
9.290597822	28.7055
9.273977405	29.4067
9.257416348	30.2182
9.240914333	31.0087
9.224471046	31.7338
9.208086173	32.3637
9.191759404	32.915
9.17549043	33.3959
9.159278945	33.8813
9.143124645	34.497
9.127027227	35.2753
9.110986392	36.2323
9.095001842	37.4066
9.079073281	38.7919
9.06320863	40.33
9.04739114	42.0233
9.031628764	43.8524
9.015921215	45.7499
9.000268208	47.66
8.984669459	49.5619
8.969124685	51.4237
8.953633608	53.1454
8.93819595	54.6791
8.922811435	56.0321
8.907479789	57.1825
8.89220074	58.201
8.876974017	59.0916
8.861799353	59.9554
8.846676481	60.7332
8.831605135	61.5819
8.816585054	62.463
8.801615977	63.3748
8.786697643	64.2471
8.771829795	65.085
8.757012178	65.8426
8.742244536	66.5294
8.727526619	67.1964
8.712858175	67.8338
8.69824652	68.4219
8.683676252	68.9652
8.669154714	69.5535
8.654681663	70.074
8.640256858	70.6439
8.625880055	71.1517
8.611551018	71.6036
8.597269507	71.9551
8.583035287	72.3672
8.568848124	72.7383
8.554707784	73.086
8.540614036	73.4354
8.52656665	73.8038
8.512565398	74.1651
8.498610052	74.5196
8.484700388	74.8516
8.470836182	75.2254
8.45701721	75.5411
8.443243252	75.8816
8.429514089	76.2186
8.415829502	76.5411
8.402189274	76.8626
8.388593191	77.2215
8.375041038	77.5459
8.361539594	77.8497
8.348074642	78.1961
8.334652987	78.4854
8.32127442	78.7852
8.307938734	79.083
8.294645723	79.4207
8.281395183	79.6619
8.268186911	79.9412
8.255020704	80.1922
8.241896361	80.471
8.228813685	80.6543
8.215772476	80.918
8.202772537	81.1248
8.189813674	81.3626
8.176895691	81.6084
8.164018395	81.8484
8.151188239	82.043
8.138391724	82.2354
8.125635323	82.4405
8.11291885	82.6192
8.100242116	82.7854
8.087604937	82.9378
8.075007126	83.1243
8.062448501	83.2918
8.049928879	83.4993
8.037448078	83.699
8.025005918	83.8799
8.012602221	84.054
8.000236807	84.253
7.9879095	84.4251
7.975620124	84.658
7.963368505	84.8948
7.951154468	85.1739
7.938977841	85.3948
7.926838452	85.6121
7.914736131	85.7107
7.902670708	85.826
7.890642014	85.8506
7.878649883	85.9466
7.866694148	86.0196
7.854780812	86.137
7.842897355	86.2539
7.831049799	86.3606
7.819237984	86.4817
7.807461747	86.6052
7.795720929	86.7461
7.784015369	86.8181
7.772344909	86.9426
7.760709391	87.0134
7.749108659	87.1487
7.737542556	87.2305
7.726010929	87.343
7.714513623	87.4187
7.703050485	87.5257
7.691621363	87.6279
7.680226106	87.7344
7.668864563	87.836
7.657536586	87.9407
7.646242025	88.034
7.634980733	88.1443
7.623752563	88.2415
7.61255737	88.3379
7.601395008	88.4368
7.590265333	88.5593
7.579173946	88.6414
7.568109199	88.7361
7.557076711	88.8235
7.546076342	88.9153
7.535107952	89.0139
7.524171401	89.0908
7.51326655	89.1834
7.502393263	89.2305
7.491551403	89.325
7.480740833	89.3943
7.469961418	89.5137
7.459213023	89.5457
7.448495516	89.6367
7.437808762	89.6819
7.42715263	89.7783
7.416526989	89.8352
7.405931707	89.9236
7.395366655	89.9824
7.384831703	90.0335
7.374326724	90.1026
7.363851589	90.1594
7.353406171	90.2129
7.342990345	90.2576
7.332603984	90.3389
7.322252325	90.3811
7.311924506	90.428
7.30162578	90.4646
7.291356025	90.5291
7.281115117	90.5886
7.270902937	90.6419
7.260719363	90.6546
7.250564275	90.699
7.240437554	90.7168
7.230339081	90.7449
7.220268738	90.7859
7.210226408	90.927
7.200211974	91.0557
7.19022532	91.2058
7.18026633	91.3333
7.17033489	91.5144
7.160436013	91.6184
7.150559317	91.7149
7.140709829	91.7822
7.130887439	91.8106
7.121092034	91.8281
7.111323503	91.8211
7.101581735	91.8313
7.091866622	91.8152
7.082178053	91.8274
7.07251592	91.7991
7.062880115	91.834
7.053270531	91.867
7.04368706	91.9324
7.034129597	91.9329
7.024598035	91.9971
7.01509227	92.042
7.005612196	92.1104
6.99615771	92.1943
6.986728709	92.2952
6.977325089	92.3836
6.967946748	92.5164
6.958593585	92.6211
6.949265497	92.6301
6.939962385	92.6487
6.930688952	92.709
6.921435478	92.7568
6.912206681	92.7686
6.903002461	92.7937
6.893822721	92.802
6.884667364	92.7852
6.875536292	92.7644
6.866429409	92.8408
6.857346618	92.8289
6.848287825	92.7659
6.839252935	92.7363
6.830241852	92.7617
6.821254483	92.752
6.812290735	92.7891
6.803350514	92.781
6.794433728	92.8279
6.785540285	92.8303
6.776670093	92.8193
6.767823062	92.7791
6.7589991	92.7717
6.750198118	92.7761
6.741420026	92.7708
6.732664735	92.7793
6.723932156	92.8106
6.715226709	92.8418
6.706539278	92.866
6.697874296	92.8838
6.689231675	92.8906
6.680611329	92.9326
6.672013173	92.916
6.663437121	92.947
6.654883087	92.929
6.646350987	92.9744
6.637840737	93.0654
6.629352253	93.084
6.620885451	93.0315
6.612440248	93.0486
6.604016563	93.0461
6.595614312	93.083
6.587233415	93.1133
6.578873789	93.1477
6.570535354	93.1721
6.56221803	93.125
6.553921736	93.1025
6.545646392	93.1052
6.537391921	93.0696
6.529158241	93.0564
6.520945276	93.0859
6.512757189	93.0635
6.504585407	93.1028
6.496434107	93.2004
6.488303211	93.2473
6.480192643	93.1963
6.472102327	93.2092
6.464032186	93.2044
6.455982145	93.2419
6.44795213	93.2578
6.439942066	93.302
6.431951879	93.3406
6.423981494	93.405
6.416030838	93.4988
6.408099838	93.5215
6.400188422	93.4558
6.392296516	93.458
6.384424048	93.4863
6.376570948	93.5271
6.368737143	93.5662
6.360922563	93.5606
6.353127136	93.5813
6.345350793	93.6582
6.337593464	93.6575
6.329855078	93.6299
6.322139564	93.6589
6.314438848	93.7029
6.30675687	93.7393
6.29909356	93.7459
6.291448851	93.7849
6.283822676	93.8025
6.276214965	93.8552
6.268625654	93.8494
6.261054675	93.8818
6.253501961	93.8713
6.245967447	93.905
6.238451067	93.8889
6.230952756	93.9211
6.223472449	93.9629
6.21601008	94.0176
6.208565585	94.0461
6.201142747	94.0466
6.1937338	94.085
6.186342535	94.1126
6.178968891	94.0479
6.171612803	93.9207
6.164274209	93.8547
6.156953047	93.7334
6.149649255	93.6126
6.14236277	93.541
6.135093533	93.5703
6.12784148	93.5867
6.120606552	93.5916
6.113388688	93.5476
6.106187828	93.4685
6.099003911	93.3867
6.091836878	93.3826
6.084686669	93.4109
6.077553226	93.5418
6.070436489	93.6287
6.063336399	93.6914
6.056252899	93.8367
6.049185931	94.0603
6.042135436	94.124
6.035101357	94.1648
6.02808727	94.304
6.021085843	94.5186
6.01410066	94.8118
6.007131667	95.0139
6.000178805	95.1951
5.99324202	95.3418
5.986321256	95.4207
5.979416457	95.3967
5.972527568	95.4089
5.965654534	95.3733
5.9587973	95.2813
5.951955813	95.2129
5.945130017	95.1667
5.938319859	95.1863
5.931525286	95.1367
5.924746243	95.002
5.917982678	94.9365
5.911234538	94.874
5.904501769	94.8713
5.89778432	94.95
5.891082139	94.9443
5.884395172	94.9666
5.87772337	95.0186
5.871066679	94.9512
5.864428488	94.9363
5.85780186	94.9294
5.851190191	94.9172
5.84459343	94.9128
5.838011527	94.9143
5.831444431	94.9561
5.824892094	95.002
5.818354465	95.0427
5.811831494	94.9929
5.805323133	94.9973
5.798829332	95.0078
5.792350043	95.0352
5.785885217	95.0461
5.779434806	95.0742
5.772998761	95.1121
5.766577035	95.1758
5.760169579	95.1521
5.753776347	95.1123
5.747397291	95.124
5.741032364	95.0881
5.734681519	95.0691
5.728344709	95.0537
5.722021888	95.0791
5.715713009	95.0588
5.709421287	95.0608
5.703140149	95.0271
5.696872816	95.0183
5.690619242	95.0049
5.684379382	95.0195
5.678153192	95.0266
5.671940626	95.0195
5.66574164	94.9844
5.659556189	94.9951
5.653384229	94.9756
5.647225716	94.9836
5.641080605	94.9841
5.634948854	94.957
5.628830419	94.9043
5.622725256	94.9119
5.616633323	94.9231
5.610557723	94.9023
5.604492113	94.9014
5.598439603	94.8682
5.592400152	94.8467
5.586373717	94.8289
5.580360257	94.8743
5.574359729	94.8379
5.568372092	94.8152
5.562397304	94.7732
5.556435324	94.7786
5.550486112	94.7764
5.544549625	94.7693
5.538625823	94.7317
5.532714665	94.7275
5.526816112	94.7371
5.520930122	94.748
5.515056656	94.7073
5.509195674	94.7053
5.503347136	94.7087
5.497511002	94.6912
5.491687233	94.6787
5.48587579	94.6619
5.480076633	94.6448
5.474289725	94.6155
5.468518015	94.6104
5.462755479	94.5925
5.457005076	94.5703
5.451266765	94.5322
5.445540511	94.5457
5.439826274	94.5125
5.434124016	94.5315
5.428433701	94.5293
5.422755291	94.5476
5.417088748	94.498
5.411434035	94.4534
5.405791116	94.3936
5.400159953	94.3596
5.394540509	94.3269
5.388932749	94.3118
5.383336635	94.3147
5.377752132	94.3037
5.372179203	94.3027
5.366617813	94.2957
5.361067925	94.302
5.355529504	94.2918
5.350002515	94.2878
5.344486921	94.2617
5.338982689	94.2527
5.333492627	94.2188
5.328011006	94.1982
5.32254064	94.1804
5.317081497	94.1875
5.31163354	94.1707
5.306196736	94.1668
5.30077105	94.1555
5.295356449	94.1631
5.289952898	94.136
5.284560364	94.1238
5.279178813	94.1055
5.273808212	94.1018
5.268448526	94.1155
5.263099724	94.1155
5.257761771	94.0947
5.252434635	94.072
5.247118283	94.0847
5.241812682	94.082
5.236517799	94.0742
5.231233603	94.0645
5.225960061	94.0584
5.220697141	94.0059
5.21544481	94.0042
5.210203036	93.9919
5.204974498	93.9707
5.19975374	93.9509
5.194543444	93.9558
5.189343579	93.9258
5.184154115	93.8962
5.178975019	93.877
5.173806261	93.8626
5.168647809	93.8298
5.163499634	93.804
5.158361704	93.793
5.153233989	93.761
5.148116459	93.7578
5.143009082	93.7373
5.137911829	93.7139
5.13282467	93.6736
5.127747575	93.6445
5.122680514	93.5977
5.117623458	93.5881
5.112576376	93.5505
5.107539239	93.5203
5.102512018	93.4861
5.097494683	93.47
5.092487206	93.4473
5.087489558	93.4207
5.082504292	93.3684
5.077526209	93.3379
5.072557868	93.3318
5.06759924	93.3369
5.062650297	93.3479
5.057711011	93.363
5.052781354	93.3789
5.047861297	93.4033
5.042950812	93.4238
5.038049872	93.4314
5.033158448	93.4343
5.028276513	93.4539
5.023404039	93.4736
5.018541	93.4509
5.013687367	93.458
5.008843113	93.449
5.004010715	93.4551
4.999185133	93.427
4.994368849	93.4258
4.989561837	93.4231
4.984764069	93.4128
4.979975518	93.3933
4.97519616	93.4109
4.970425966	93.3982
4.96566491	93.3721
4.960912967	93.364
4.95617011	93.3206
4.951436313	93.3162
4.94671155	93.2849
4.941995795	93.2647
4.937289023	93.2402
4.932591209	93.2334
4.927902325	93.2537
4.923222347	93.2432
4.918551251	93.2146
4.913889009	93.2224
4.909235598	93.2275
4.904590991	93.2022
4.899955165	93.2
4.895328095	93.1924
4.890712146	93.1677
4.886102507	93.1536
4.88150155	93.1414
4.876909249	93.1365
4.87232558	93.1394
4.86775052	93.1387
4.863184043	93.1077
4.858626126	93.0964
4.854076745	93.0772
4.849535875	93.0662
4.845003493	93.0537
4.840479575	93.0398
4.835964098	93.043
4.831457037	93.0469
4.826958369	93.0564
4.822468072	93.0459
4.81798612	93.0488
4.813512492	93.0501
4.809047164	93.0322
4.804590113	93.0166
4.800141316	93.0193
4.79570075	93.0339
4.791268392	93.0593
4.78684422	93.0449
4.782430498	92.9949
4.778022625	92.9815
4.773622869	92.9636
4.769231209	92.9365
4.764847623	92.918
4.760472086	92.9072
4.756104579	92.8884
4.751745078	92.8711
4.747393562	92.8926
4.743050009	92.8906
4.738714396	92.8633
4.734386703	92.8367
4.730066907	92.8298
4.725754987	92.8125
4.721450921	92.7959
4.717154688	92.7979
4.712866266	92.7942
4.708585635	92.8171
4.704312773	92.8001
4.700047658	92.783
4.695790271	92.7588
4.691540589	92.7764
4.687298593	92.7615
4.68306426	92.7503
4.67883976	92.7383
4.67462069	92.7307
4.670409221	92.71
4.666205334	92.7068
4.662009009	92.6961
4.657820224	92.6697
4.65363896	92.657
4.649465195	92.658
4.645298911	92.6336
4.641140087	92.6199
4.636988702	92.615
4.632844738	92.6221
4.628708174	92.6152
4.62457899	92.6035
4.620457167	92.5938
4.616342684	92.5693
4.612235523	92.6028
4.608135664	92.6628
4.604043086	92.6296
4.599957772	92.5759
4.595879702	92.5684
4.591808856	92.5193
4.587745215	92.4932
4.58368876	92.4539
4.57964157	92.447
4.575599426	92.4168
4.571564412	92.4226
4.567536508	92.4043
4.563515696	92.3818
4.559501956	92.364
4.555495271	92.3623
4.551495621	92.3545
4.547502989	92.3318
4.543517355	92.2959
4.539538701	92.2813
4.535567009	92.29
4.531602261	92.2676
4.527644439	92.2559
4.523693523	92.2178
4.519749497	92.2295
4.515814382	92.2139
4.511884077	92.1924
4.507960608	92.1531
4.504043956	92.1514
4.500134104	92.1279
4.496231034	92.1289
4.492334729	92.1199
4.488445171	92.1397
4.484562343	92.1189
4.480686226	92.0684
4.476816804	92.0274
4.47295406	91.9941
4.469097975	91.9697
4.465248534	91.959
4.461405718	91.9356
4.45756951	91.9297
4.453739894	91.9148
4.449916853	91.9158
4.44610037	91.8855
4.442290427	91.8591
4.438487009	91.8457
4.434690097	91.8125
4.430899676	91.8057
4.42711573	91.7849
4.423340197	91.7676
4.419569145	91.752
4.415804518	91.7708
4.412046298	91.7559
4.408294471	91.7263
4.404549018	91.698
4.400809925	91.7002
4.397077175	91.6943
4.393350752	91.6611
4.389630639	91.6355
4.385916821	91.6358
4.382209282	91.6296
4.378508006	91.5994
4.374812977	91.5996
4.371124179	91.582
4.367441596	91.5615
4.363765214	91.5303
4.360095015	91.5232
4.356430985	91.4717
4.352773108	91.4473
4.349121369	91.4558
4.345475751	91.4412
4.341836241	91.4343
4.338202821	91.4375
4.334577357	91.4053
4.330956072	91.3884
4.327340832	91.3643
4.323731623	91.3464
4.320128429	91.3369
4.316531235	91.3125
4.312940028	91.3027
4.30935479	91.294
4.305775509	91.292
4.302202168	91.2517
4.298634754	91.2146
4.29507325	91.167
4.291517644	91.1641
4.287967919	91.1541
4.284424062	91.1299
4.280886058	91.1267
4.277353892	91.1331
4.27382755	91.1106
4.270307018	91.0794
4.266792281	91.0574
4.263283325	91.0549
4.259780136	91.0271
4.256282699	91.0335
4.252791	91.0213
4.249306832	91.0042
4.245826565	91.0154
4.242351994	91.0056
4.238883105	90.9544
4.235419885	90.9119
4.231962319	90.8865
4.228510393	90.8552
4.225064094	90.8333
4.221623408	90.822
4.218188322	90.8005
4.214758821	90.7547
4.211334892	90.7263
4.207916522	90.7312
4.204503696	90.7214
4.201096402	90.72
4.197694626	90.7234
4.194300114	90.7141
4.190909331	90.6941
4.187524026	90.7009
4.184144186	90.6785
4.180769797	90.6306
4.177400846	90.6013
4.174037321	90.5921
4.170679208	90.5769
4.167326493	90.5711
4.163979165	90.5476
4.16063721	90.5349
4.157300615	90.4861
4.153969367	90.4412
4.150643454	90.4085
4.147322862	90.3899
4.144007579	90.3694
4.140697592	90.3665
4.137392888	90.3435
4.134093455	90.3225
4.130799281	90.3084
4.127510352	90.3259
4.124226656	90.3215
4.120948181	90.2962
4.117674914	90.2756
4.114408535	90.2454
4.111145645	90.2254
4.107887925	90.2371
4.104635365	90.2214
4.101387951	90.156
4.098145671	90.1492
4.094908514	90.1565
4.091676466	90.1155
4.088449517	90.0691
4.085227653	90.0515
4.082010864	90.0066
4.078799136	90.0061
4.075592459	90.0032
4.072390819	89.9807
4.069194206	89.9758
4.066002607	89.9685
4.062816011	89.9387
4.059634406	89.9104
4.056457779	89.906
4.053286121	89.8836
4.050119418	89.8391
4.046957659	89.8113
4.043800833	89.8128
4.040648928	89.8123
4.037503563	89.783
4.034361463	89.7776
4.031224251	89.7683
4.028091913	89.7644
4.024964439	89.7424
4.021841819	89.7029
4.018724039	89.7063
4.01561109	89.6887
4.012502959	89.6848
4.009399637	89.6497
4.00630111	89.6179
4.00320737	89.5969
4.000118404	89.5681
3.997034201	89.5291
3.99395475	89.4978
3.990880041	89.4705
3.987810062	89.4275
3.984744803	89.4046
3.981684252	89.3816
3.9786284	89.3347
3.975577234	89.3128
3.972530744	89.2966
3.96948892	89.2888
3.966451751	89.2698
3.963420797	89.2971
3.960392903	89.3147
3.957369631	89.3128
3.954350972	89.2664
3.951336915	89.263
3.948327449	89.262
3.945322564	89.261
3.942322249	89.2595
3.939326493	89.2449
3.936335288	89.2151
3.933348621	89.2156
3.930366483	89.1956
3.927388864	89.1233
3.924415753	89.1072
3.921447139	89.074
3.918483014	89.0525
3.915523366	89.0315
3.912568186	89.013
3.909617463	89.0159
3.906671188	88.99
3.90372935	88.9754
3.900791939	88.9822
3.897858945	88.9632
3.894930359	88.9216
3.892007684	88.8987
3.889087881	88.8714
3.886172454	88.8264
3.883261396	88.8103
3.880354695	88.7825
3.877452343	88.7639
3.874554329	88.7742
3.871660644	88.763
3.868771278	88.7136
3.865886222	88.7107
3.863005465	88.6892
3.860128998	88.6819
3.857256812	88.6497
3.854388896	88.6248
3.851525243	88.6033
3.848665841	88.5969
3.845812161	88.6062
3.842961232	88.6072
3.840114528	88.6062
3.837272037	88.5799
3.834433752	88.5515
3.831599662	88.5393
3.828769759	88.5452
3.825944033	88.5359
3.823122474	88.4968
3.820305074	88.4719
3.817491824	88.4534
3.814682714	88.4177
3.811877735	88.3914
3.809076878	88.3767
3.806280134	88.3816
3.803487494	88.343
3.800698949	88.3255
3.797914489	88.3167
3.795134107	88.2962
3.792357792	88.2771
3.789585537	88.2698
3.786817332	88.2351
3.784053167	88.2107
3.781293036	88.1917
3.778538356	88.1721
3.77578626	88.1883
3.773038171	88.1487
3.770294079	88.1272
3.767553976	88.0989
3.764817852	88.0701
3.7620857	88.0574
3.759357511	88.0027
3.756633275	87.9534
3.753912985	87.9412
3.751196632	87.9163
3.748484207	87.9065
3.745775701	87.8958
3.743071107	87.887
3.740370416	87.8582
3.73767362	87.8523
3.734980709	87.8382
3.732291676	87.8401
3.729606512	87.8347
3.726925208	87.8504
3.724247758	87.8338
3.721574151	87.802
3.718904381	87.762
3.716238438	87.7337
3.713577694	87.6677
3.71091938	87.6238
3.708264869	87.5969
3.705614154	87.5467
3.702967225	87.4968
3.700324074	87.4671
3.697684695	87.4651
3.695049078	87.469
3.692417215	87.449
3.689789099	87.4534
3.687164722	87.4529
3.684544075	87.4168
3.68192715	87.4236
3.67931394	87.4016
3.676704437	87.3635
3.674098633	87.3504
3.67149652	87.3279
3.66889809	87.2781
3.666303336	87.2459
3.663712249	87.2298
3.661124822	87.2097
3.658541047	87.2019
3.655960916	87.1809
3.653384422	87.1946
3.65081289	87.1848
3.648243644	87.1624
3.645678012	87.1497
3.643115986	87.1311
3.640557559	87.0725
3.638002722	87.0296
3.635451469	86.991
3.632903791	86.9519
3.630359682	86.9461
3.627819133	86.9426
3.625282138	86.8928
3.622748688	86.9031
3.620218777	86.9021
3.617692397	86.8733
3.615169541	86.8728
3.6126502	86.8787
3.610135673	86.8655
3.607623341	86.8064
3.605114504	86.7967
3.602609154	86.7967
3.600107283	86.7957
3.597608885	86.7703
3.595113953	86.762
3.592622478	86.7244
3.590134454	86.7034
3.587649874	86.6883
3.585168731	86.6316
3.582691017	86.5764
3.580216725	86.5672
3.577745848	86.5452
3.57527838	86.5203
3.572814313	86.4949
3.57035364	86.4749
3.567896354	86.4646
3.565442448	86.4461
3.562991916	86.4138
3.560544749	86.3738
3.558100942	86.3386
3.555660487	86.3181
3.553223378	86.3186
3.550790868	86.2898
3.548360427	86.2449
3.545933311	86.2058
3.543509513	86.1668
3.541089027	86.1238
3.538671844	86.1209
3.53625796	86.115
3.533847367	86.1209
3.531440058	86.115
3.529036026	86.1038
3.526635266	86.0608
3.524237769	86.0154
3.52184353	85.9788
3.519452542	85.9475
3.517064798	85.9143
3.514680292	85.95
3.512299017	85.9534
3.509920967	85.9539
3.507546135	85.9558
3.505174514	85.9514
3.502806098	85.9026
3.500440881	85.865
3.498078855	85.8386
3.495720015	85.8142
3.493365575	85.7888
3.491013085	85.7683
3.488663762	85.7215
3.486317598	85.6546
3.483974588	85.6248
3.481634725	85.5994
3.479298003	85.5603
3.476964415	85.5154
3.474633956	85.5154
3.472306619	85.4886
3.469982397	85.4695
3.467661284	85.4832
3.465343275	85.4656
3.463028363	85.4265
3.460716541	85.407
3.458407804	85.3621
3.456102146	85.3162
3.453799559	85.3089
3.451500039	85.3025
3.449203579	85.2835
3.446910172	85.2722
3.444619814	85.2791
3.442332497	85.2566
3.440048216	85.2635
3.437768146	85.2586
3.435489916	85.2625
3.433214704	85.2527
3.430942504	85.284
3.428673309	85.2971
3.426407114	85.2654
3.424143913	85.2449
3.421883699	85.2034
3.419626467	85.1897
3.417372212	85.1604
3.415120926	85.135
3.412872605	85.0901
3.410627242	85.0174
3.408384831	84.9827
3.406145367	84.951
3.403908845	84.9031
3.401675257	84.864
3.399444599	84.8474
3.397216864	84.8084
3.394992047	84.7869
3.392770143	84.7869
3.390551144	84.7971
3.388335047	84.8103
3.386121844	84.7849
3.383912676	84.8054
3.381705245	84.8128
3.379500692	84.8338
3.377299012	84.8836
3.375100198	84.9285
3.372904246	84.9217
3.370711149	84.9378
3.368520903	84.8792
3.366333501	84.8543
3.364148938	84.803
3.361967208	84.7469
3.359788306	84.6853
3.357612227	84.6297
3.355438965	84.5935
3.353268515	84.5642
3.35110087	84.572
3.348937148	84.5701
3.346775098	84.5511
3.344615837	84.5252
3.342459362	84.5008
3.340305665	84.4827
3.338154741	84.4744
3.336006587	84.4627
3.333861195	84.4285
3.33171856	84.4041
3.329578678	84.3601
3.327441544	84.3103
3.32530715	84.3025
3.323175494	84.2722
3.321046568	84.2488
3.318920368	84.2112
3.31679689	84.2034
3.314676126	84.1761
3.312558073	84.1663
3.310442725	84.1463
3.308330077	84.1541
3.306220124	84.1385
3.304112861	84.1057
3.302008281	84.115
3.299906382	84.0999
3.297808244	84.0945
3.295711686	84.0335
3.293617792	84.0027
3.291526557	84.0022
3.289437976	83.9988
3.287352045	83.9724
3.285268756	83.9612
3.283188107	83.9597
3.281110091	83.9256
3.279034705	83.885
3.276961942	83.8758
3.274891798	83.8601
3.272824267	83.805
3.270759346	83.7937
3.268697029	83.7932
3.26663731	83.7771
3.264580186	83.7312
3.262525652	83.6795
3.260473701	83.6878
3.25842433	83.7034
3.256377534	83.6897
3.254333308	83.6565
3.252291646	83.6287
3.250252545	83.6521
3.248217054	83.6292
3.246183057	83.6448
3.244151606	83.6394
3.242122696	83.6287
3.240096322	83.5823
3.238072479	83.5393
3.236051163	83.5242
3.234032369	83.492
3.232016093	83.4763
3.230002329	83.4846
3.227991073	83.4588
3.22598232	83.3758
3.223976065	83.3499
3.221972305	83.3347
3.219971033	83.3221
3.217972246	83.3245
3.215975939	83.3147
3.213982108	83.2913
3.211990747	83.2893
3.210001852	83.2928
3.208015419	83.2596
3.206031443	83.1931
3.204049919	83.1971
3.202070843	83.1531
3.200095235	83.096
3.19812104	83.0926
3.196149279	83.0857
3.194179949	83.0589
3.192213043	83.0276
3.190248559	83.031
3.18828649	83.0061
3.186326834	82.9832
3.184369586	82.969
3.18241474	82.9256
3.180462293	82.8992
3.17851224	82.8924
3.176564577	82.8142
3.1746193	82.7542
3.172676403	82.7713
3.170735883	82.7796
3.168797736	82.7351
3.166861956	82.6897
3.164928541	82.678
3.162997484	82.6287
3.161068783	82.5628
3.159142432	82.5584
3.157218427	82.5369
3.155296765	82.5154
3.153378435	82.5066
3.151461443	82.4842
3.14954678	82.4456
3.147634443	82.4197
3.145724426	82.3792
3.143816726	82.3206
3.141911338	82.3108
3.140008258	82.2967
3.138107483	82.2991
3.136209007	82.2244
3.134312827	82.2439
3.132418938	82.2478
3.130527337	82.2347
3.128638019	82.2244
3.126750981	82.1697
3.124866217	82.135
3.122984699	82.1287
3.121104471	82.0843
3.119226507	82.073
3.1173508	82.0042
3.115477349	81.9881
3.113606148	81.9803
3.111737193	81.9339
3.10987048	81.8885
3.108006006	81.8338
3.106143766	81.7893
3.104283756	81.6878
3.102425973	81.6565
3.100570412	81.6038
3.098717069	81.5662
3.096865941	81.5418
3.095017023	81.5389
3.093170311	81.4558
3.091325802	81.4046
3.089483491	81.364
3.087643375	81.3123
3.085805449	81.2679
3.08396971	81.2459
3.082136155	81.1917
3.080304778	81.1365
3.078476524	81.1194
3.076649492	81.0701
3.074824627	81.0901
3.073001926	81.0877
3.071181385	81.0662
3.069363	81.0232
3.067546766	80.9632
3.065732681	80.9593
3.06392074	80.906
3.06211094	80.826
3.060303276	80.7913
3.058497745	80.7835
3.056694344	80.7503
3.054893068	80.7308
3.053093914	80.7366
3.051296877	80.6995
3.049501955	80.6404
3.047709144	80.596
3.045918439	80.5525
3.044129837	80.4754
3.042343335	80.4358
3.040558928	80.4021
3.038776613	80.3846
3.036996386	80.3538
3.035219166	80.3108
3.033443104	80.281
3.031669119	80.2713
3.029897208	80.2718
3.028127367	80.2439
3.026359592	80.2386
3.02459388	80.219
3.022830228	80.1663
3.021068631	80.1033
3.019309085	80.0779
3.017551589	80.0433
3.015796137	80.0642
3.014042726	80.0472
3.012291354	79.9568
3.010542015	79.8709
3.008794707	79.8318
3.007049426	79.7967
3.005306169	79.7464
3.003564931	79.6351
3.00182571	79.5799
3.000088503	79.574
2.998353304	79.5257
2.996620112	79.4358
2.994888923	79.3904
2.993160628	79.3514
2.991433432	79.3338
2.989708228	79.2625
2.987985013	79.2059
2.986263784	79.2
2.984544536	79.1541
2.982827267	79.0564
2.981111973	78.948
2.97939865	78.8894
2.977687296	78.785
2.975977906	78.6834
2.974270478	78.6307
2.972565009	78.6189
2.970861493	78.535
2.96915993	78.4705
2.967460314	78.4236
2.965763522	78.3865
2.964067792	78.3143
2.962373999	78.2644
2.960682141	78.1834
2.958992215	78.118
2.957304216	78.0975
2.955618142	78.0809
2.95393399	78.0721
2.952251756	78.0164
2.950571437	77.9666
2.94889303	77.8934
2.947216531	77.8562
2.945541937	77.8572
2.943869245	77.7986
2.942198452	77.7078
2.940529554	77.6814
2.938862549	77.6355
2.937197432	77.5799
2.935534201	77.5525
2.933872853	77.532
2.932213384	77.5105
2.930555792	77.4422
2.928900072	77.3807
2.927246222	77.3514
2.925595095	77.2928
2.923944975	77.2391
2.922296715	77.2039
2.920650312	77.199
2.919005763	77.1619
2.917363066	77.1541
2.915722216	77.1307
2.91408321	77.1209
2.912446047	77.0945
2.910810722	77.0574
2.909177232	77.0613
2.907545575	77.0789
2.905915747	77.1043
2.904287745	77.1102
2.902661566	77.0965
2.901037208	77.0877
2.899414666	77.1131
2.897793938	77.1014
2.896175022	77.073
2.894557913	77.0525
2.892942609	77.0047
2.891329106	76.9666
2.889717403	76.9666
2.888107495	76.9353
2.886500214	76.9139
2.884893888	76.8484
2.883289349	76.8123
2.881686594	76.7732
2.880085619	76.782
2.878486423	76.7576
2.876889001	76.7312
2.875293352	76.7205
2.873699471	76.7166
2.872107357	76.7117
2.870517006	76.6951
2.868928415	76.702
2.867341582	76.7059
2.865756502	76.6844
2.864173175	76.658
2.862591596	76.6365
2.861011762	76.6336
2.859433672	76.6268
2.857857321	76.5838
2.856282708	76.5809
2.854709829	76.6336
2.853138681	76.7068
2.851569261	76.6951
2.850001568	76.6971
2.848436408	76.6961
2.846872156	76.6766
2.845309621	76.6697
2.8437488	76.6697
2.842189691	76.617
2.840632291	76.657
2.839076596	76.6551
2.837522604	76.6062
2.835970313	76.6492
2.834419719	76.6883
2.83287082	76.6922
2.831323613	76.6922
2.829778094	76.7234
2.828234263	76.7127
2.826692114	76.7537
2.825151647	76.8006
2.823612858	76.8709
2.822075744	76.9061
2.820540303	76.9344
2.819006531	76.9891
2.817474427	77.0359
2.815943987	77.0486
2.81441521	77.0359
2.812888091	77.0818
2.811363418	77.0506
2.809839609	77.0271
2.80831745	77.0086
2.806796939	77.0545
2.805278075	77.1072
2.803760853	77.1053
2.802245271	77.116
2.800731327	77.1092
2.799219018	77.1219
2.797708341	77.1727
2.796199294	77.1697
2.794691874	77.1639
2.793186078	77.1814
2.791681905	77.1834
2.79017935	77.2039
2.788678412	77.2586
2.787179865	77.284
2.785682151	77.2977
2.784186046	77.2654
2.782691547	77.2693
2.781198652	77.2537
2.779707358	77.2586
2.778217662	77.2996
2.776729562	77.3396
2.775243056	77.3924
2.77375814	77.3904
2.772274812	77.4451
2.77079307	77.5115
2.769312911	77.5428
2.767834333	77.533
2.766357333	77.5672
2.764881908	77.5477
2.763408056	77.5252
2.761935774	77.5037
2.760465061	77.4646
2.758995913	77.449
2.757528328	77.535
2.756062304	77.657
2.754597837	77.7107
2.753134926	77.6424
2.751674325	77.6492
2.750214517	77.6482
2.748756257	77.7
2.747299542	77.7244
2.74584437	77.7205
2.74439074	77.7039
2.742938647	77.7674
2.741488091	77.7977
2.740039067	77.8064
2.738591575	77.8211
2.737145611	77.7635
2.735701174	77.7586
2.73425826	77.7225
2.732816867	77.6111
2.731376994	77.5828
2.729938636	77.5896
2.728501793	77.5867
2.727066462	77.5789
2.72563264	77.5721
2.724200325	77.6092
2.722769514	77.5682
2.721340206	77.5213
2.719912397	77.5154
2.718486086	77.4744
2.717062008	77.4646
2.715638684	77.4568
2.714216851	77.4881
2.712796505	77.533
2.711377646	77.5906
2.709960269	77.5994
2.708544374	77.5555
2.707129958	77.5359
2.705717018	77.5018
2.704305552	77.4617
2.702895558	77.4344
2.701487034	77.4139
2.700079976	77.3963
2.698674384	77.4148
2.697270255	77.4344
2.695867585	77.4705
2.694466374	77.4744
2.693066619	77.4812
2.691668318	77.4393
2.690271467	77.4227
2.688876066	77.3904
2.687482111	77.3455
2.686089602	77.3602
2.684698534	77.4158
2.683309626	77.3846
2.681921436	77.3016
2.680534681	77.2381
2.679149359	77.2156
2.677765469	77.2127
2.676383008	77.2
2.675001973	77.1697
2.673622363	77.1736
2.672244175	77.1697
2.670867407	77.2381
2.669492057	77.2635
2.668118123	77.2
2.666745602	77.1951
2.665374493	77.2303
2.664004793	77.2117
2.6626365	77.1111
2.66127032	77.0916
2.659904834	77.0545
2.658540748	76.9725
2.657178061	76.9422
2.65581677	76.9588
2.654456873	76.949
2.653098368	76.9773
2.651741253	76.8807
2.650385525	76.8523
2.649031183	76.8787
2.647678224	76.824
2.646326647	76.7967
2.644976449	76.742
2.643627628	76.7029
2.642280182	76.6932
2.640934109	76.6795
2.639589407	76.7039
2.638246073	76.7264
2.636904106	76.6482
2.635563503	76.658
2.634224263	76.6053
2.632886383	76.6014
2.631549862	76.5867
2.630214697	76.5828
2.628881577	76.5906
2.627549117	76.5203
2.626218007	76.4852
2.624888245	76.4568
2.62355983	76.4344
2.622232758	76.4373
2.620907028	76.3914
2.619582638	76.4031
2.618259585	76.3748
2.616937869	76.3797
2.615617486	76.4139
2.614298435	76.4266
2.612980713	76.2977
2.61166432	76.243
2.610349252	76.2
2.609035507	76.2518
2.607723085	76.2303
2.606411982	76.2049
2.605102197	76.2234
2.603793727	76.2068
2.602486572	76.2186
2.601180728	76.1492
2.599876194	76.1492
2.598572968	76.1678
2.597271722	76.2156
2.595971105	76.2156
2.59467179	76.1795
2.593373774	76.1541
2.592077057	76.0896
2.590781636	76.0828
2.589487509	76.1092
2.588194675	76.1502
2.58690313	76.1326
2.585612874	76.0984
2.584323905	76.115
2.58303622	76.0682
2.581749817	75.9422
2.580464695	75.9373
2.579180852	75.8484
2.577898286	75.7811
2.576616995	75.8318
2.575336976	75.8045
2.574058229	75.7693
2.572780751	75.7439
2.571504541	75.7625
2.570229596	75.699
2.568955915	75.6414
2.567683495	75.6229
2.566412994	75.6453
2.565143091	75.6463
2.563874445	75.6609
2.562607053	75.6287
2.561340913	75.617
2.560076024	75.6385
2.558812384	75.6141
2.55754999	75.5936
2.556288841	75.5115
2.555028936	75.5047
2.553770272	75.4686
2.552512847	75.4813
2.55125666	75.4617
2.550001709	75.3758
2.548747991	75.2352
2.547495506	75.2342
2.546244252	75.2732
2.544994225	75.2303
2.543745426	75.1922
2.542497852	75.2264
2.5412515	75.2273
2.54000637	75.2664
2.53876246	75.3523
2.537519767	75.367
2.536278934	75.3494
2.535038671	75.3006
2.53379962	75.2147
2.53256178	75.1375
2.531325149	75.0975
2.530089725	75.1219
2.528855506	75.0232
2.52762249	74.9188
2.526390677	74.9412
2.525160064	74.8631
2.523930648	74.7654
2.52270243	74.7547
2.521475406	74.743
2.520249575	74.7244
2.519024936	74.6648
2.517801486	74.6053
2.516579857	74.6063
2.515358781	74.6648
2.514138889	74.7342
2.512920179	74.7391
2.511702651	74.7479
2.510486301	74.7166
2.50927113	74.6336
2.508057134	74.6014
2.506844312	74.575
2.505632662	74.5193
2.504422183	74.5115
2.503212874	74.4451
2.502004731	74.3406
2.500797754	74.3592
2.499591942	74.4178
2.498387291	74.4725
2.497183801	74.3953
2.49598147	74.3865
2.494780296	74.325
2.493580278	74.3592
2.492381413	74.3592
2.491183701	74.2352
2.489987139	74.3133
2.488791726	74.3787
2.48759808	74.3553
2.486404959	74.3523
2.485212983	74.3992
2.484022149	74.3914
2.482832455	74.3182
2.4816439	74.2322
2.480456483	74.2049
2.479270202	74.115
2.478085055	74.1248
2.47690104	74.1346
2.475718156	74.0662
2.474536402	74.0877
2.473355775	74.1131
2.472176274	74.1014
2.470997898	74.0428
2.469820644	74.0037
2.468644512	73.9959
2.467469499	74.0076
2.466295604	74.0193
2.465122826	73.992
2.463951163	73.9256
2.462780612	73.9119
2.461611174	73.9373
2.460442845	73.9061
2.45927623	73.8084
2.458110116	73.7752
2.456945108	73.8397
2.455781204	73.7166
2.454618401	73.6229
2.4534567	73.6385
2.452296097	73.6834
2.451136592	73.658
2.449978183	73.5975
2.448820868	73.619
2.447664646	73.6326
2.446509516	73.6365
2.445355475	73.6365
2.444202523	73.5779
2.443050657	73.533
2.441899876	73.4998
2.440750179	73.5018
2.439601564	73.4529
2.43845403	73.41
2.437307575	73.3162
2.436162197	73.3201
2.435017895	73.2889
2.433874668	73.3201
2.432732513	73.3572
2.431592022	73.3318
2.430452008	73.2947
2.429313063	73.2186
2.428175185	73.2303
2.427038372	73.1736
2.425902624	73.1014
2.424767938	73.1092
2.423634312	73.1424
2.422501747	73.1111
2.421370239	73.1072
2.420239788	73.1092
2.419110392	73.0584
2.417982049	73.1014
2.416854758	73.0994
2.415728518	73.0643
2.414603328	72.9881
2.413479185	72.9803
2.412356088	72.9236
2.411234036	72.8631
2.410113027	72.8533
2.40899306	72.91
2.407874134	72.9119
2.406756246	72.91
2.405639396	72.9549
2.40452416	72.9588
2.40340938	72.869
2.402295634	72.824
2.401182919	72.7596
2.400071234	72.7088
2.398960578	72.7225
2.39785095	72.7186
2.396742348	72.7361
2.39563477	72.7615
2.394528216	72.7596
2.393422683	72.7127
2.392318171	72.6365
2.391214677	72.5525
2.390112201	72.5486
2.389010742	72.492
2.387910297	72.5115
2.386811435	72.4959
2.385713014	72.4236
2.384615605	72.4959
2.383519204	72.5233
2.382423811	72.4608
2.381329425	72.4803
2.380236043	72.449
2.379143665	72.3963
2.37805229	72.2967
2.376961915	72.2479
2.375872539	72.2068
2.374784162	72.2772
2.373696781	72.3162
2.372610396	72.1717
2.371525004	72.1756
2.370440606	72.3045
2.369357198	72.2674
2.368274781	72.2557
2.367193351	72.3377
2.366112909	72.3397
2.365033453	72.2928
2.363954982	72.2752
2.362877493	72.2049
2.361800987	72.158
2.360726018	72.0643
2.35965147	72.1287
2.3585779	72.1834
2.357505307	72.1365
2.356433688	72.0623
2.355363044	72.0877
2.354293372	72.119
2.353224671	72.1053
2.35215694	72.1424
2.351090177	71.9998
2.350024382	71.7928
2.348959552	71.8143
2.347895687	71.8455
2.346832785	71.8006
2.345770845	71.7674
2.344709866	71.8162
2.343649846	71.8885
2.342590784	71.8826
2.341532678	71.867
2.340475528	71.8475
2.339419333	71.785
2.33836409	71.783
2.337309798	71.7752
2.336256457	71.7654
2.335204611	71.6756
2.334153166	71.617
2.333102667	71.5252
2.332053114	71.6268
2.331004504	71.5955
2.329956838	71.494
2.328910112	71.4139
2.327864326	71.4178
2.32681948	71.3787
2.325775571	71.3553
2.324732598	71.3533
2.32369056	71.4764
2.322649456	71.5096
2.321609284	71.5486
2.320570043	71.5233
2.319531733	71.5565
2.318494351	71.5233
2.317457897	71.5486
2.316422369	71.4861
2.315387766	71.369
2.314354087	71.4178
2.31332133	71.4471
2.312289495	71.283
2.31125858	71.2498
2.310229117	71.2283
2.309200038	71.2693
2.308171875	71.2498
2.307144627	71.1424
2.306118293	71.0779
2.305092872	71.0467
2.304068363	71.0233
2.303044763	70.9647
2.302022073	70.9783
2.301000291	71.0311
2.299979415	71.0154
2.298959445	71.0662
2.297940379	71.0877
2.296922216	71.1639
2.295904955	71.2537
2.294888595	71.2889
2.29387366	71.244
2.292859097	71.1424
2.291845431	71.119
2.29083266	71.0389
2.289820785	70.9842
2.288809803	71.0096
2.287799713	70.9315
2.286790515	70.8631
2.285782206	70.8846
2.284774786	70.8377
2.283768254	70.7596
2.282762608	70.6639
2.281757848	70.6424
2.280753972	70.6815
2.279750978	70.7342
2.278748867	70.6717
2.277747636	70.5096
2.276747284	70.5174
2.275747811	70.6014
2.274749215	70.5779
2.273751494	70.5408
2.272754649	70.5096
2.271758677	70.4705
2.270763578	70.4803
2.269769866	70.5389
2.268776508	70.533
2.267784019	70.5623
2.266792398	70.6424
2.265801644	70.7147
2.264811756	70.6678
2.263822732	70.7361
2.262834571	70.7752
2.261847273	70.8065
2.260860836	70.7518
2.259875259	70.617
2.258890541	70.4393
2.257906681	70.4393
2.256923678	70.369
2.25594153	70.3358
2.254960236	70.3455
2.253979796	70.2127
2.253000208	70.1795
2.252021471	70.2733
2.251043584	70.2967
2.250066546	70.2498
2.249090355	70.2127
2.248115012	70.3045
2.247140514	70.3611
2.246167365	70.369
2.245194554	70.3748
2.244222586	70.3221
2.243251458	70.2752
2.242281171	70.1658
2.241311723	70.1444
2.240343113	70.1424
2.23937534	70.0779
2.238408402	70.0565
2.237442299	70.0486
2.23647703	70.0037
2.235512593	70.0428
2.234548988	70.033
2.233586213	70.0018
2.232624267	70.1483
2.231663149	70.0936
2.230702859	70.0233
2.229743394	70.0252
2.228784755	69.992
2.22782694	69.9842
2.226869947	69.9998
2.225913777	69.8611
2.224958427	69.8514
2.224003896	69.8846
2.223050679	69.8924
2.222097785	69.9842
2.221145707	69.994
2.220194445	69.9451
2.219243997	69.8983
2.218294362	69.8319
2.21734554	69.8611
2.21639753	69.9471
2.215450329	69.9158
2.214503938	69.7733
2.213558355	69.785
2.212613579	69.8611
2.211669609	69.8123
2.210726445	69.7733
2.209784084	69.7967
2.208842527	69.7986
2.207901771	69.7264
2.206961817	69.5506
2.206022662	69.533
2.205084307	69.4627
2.204146749	69.4842
2.203209989	69.4881
2.202274024	69.5955
2.201338854	69.5623
2.200404963	69.5174
2.199471379	69.4764
2.198538587	69.5037
2.197606587	69.619
2.196675376	69.6014
2.195744954	69.5721
2.194815319	69.5487
2.193886472	69.5643
2.192958411	69.5623
2.192031134	69.4256
2.191104641	69.4217
2.190178931	69.3514
2.189254003	69.3065
2.188329856	69.2654
2.187406488	69.3436
2.1864839	69.367
2.185562567	69.3065
2.184641533	69.2733
2.183721275	69.2498
2.182801792	69.2498
2.181883083	69.1951
2.180965147	69.1795
2.180047983	69.2518
2.17913159	69.1912
2.178215967	69.1971
2.177301113	69.1639
2.176387028	69.1326
2.175473709	69.1639
2.174561157	69.1561
2.17364937	69.1951
2.172738348	69.1658
2.171828089	68.992
2.170918592	69.035
2.170009856	69.119
2.169101881	69.1268
2.168194666	69.0076
2.167288209	69.1561
2.166382509	69.3377
2.165477567	69.2596
2.16457338	69.0955
2.163670416	69.0623
2.162767737	69.0701
2.161865811	69.0389
2.160964637	69.0467
2.160064214	69.0272
2.159164542	69.0643
2.158265618	68.9549
2.157367442	68.8768
2.156470014	68.8279
2.155573332	68.7967
2.154677395	68.7127
2.153782203	68.6912
2.152887754	68.7733
2.151994048	68.6795
2.151101084	68.658
2.150208861	68.7205
2.149317377	68.7205
2.148426632	68.4705
2.147536625	68.5623
2.146647355	68.7654
2.145758822	68.8436
2.144871024	68.7694
2.14398396	68.9237
2.143097629	68.8924
2.14221249	68.9295
2.141327623	69.1268
2.140443487	69.0154
2.139560081	68.8045
2.138677403	69.0018
2.137795454	69.0643
2.136914232	68.9783
2.136033736	68.8612
2.135153965	68.9295
2.134274919	68.8455
2.133396596	68.8768
2.132518995	68.7733
2.131642117	68.7029
2.130765959	68.6092
2.129890521	68.6658
2.129015803	68.5858
2.128141802	68.5584
2.127268519	68.6483
2.126395952	68.6873
2.125524101	68.619
2.124652964	68.492
2.123782542	68.492
2.122912832	68.3846
2.122043834	68.4862
2.121175997	68.4451
2.12030842	68.4139
2.119441553	68.5779
2.118575394	68.6951
2.117709942	68.7186
2.116845198	68.6717
2.115981159	68.6893
2.115117826	68.6737
2.114255197	68.6483
2.113393271	68.6092
2.112532047	68.6404
2.111671525	68.6112
2.110811704	68.5545
2.109952583	68.4627
2.109094161	68.3846
2.108236437	68.2908
2.107379855	68.4061
2.106523524	68.4862
2.105667889	68.4139
2.104812949	68.3455
2.103958703	68.4842
2.103105151	68.4627
2.10225229	68.5858
2.101400121	68.6424
2.100548642	68.7596
2.099697853	68.8123
2.098847754	68.8592
2.097998342	68.6815
2.097149617	68.7186
2.096301579	68.6033
2.095454226	68.6033
2.094607559	68.6014
2.093761575	68.4705
2.092916274	68.2733
2.092071655	68.2811
2.091227718	68.2674
2.090384461	68.2186
2.089541885	68.3045
2.088699987	68.2889
2.087858767	68.2362
2.08701866	68.2127
2.086178794	68.1737
2.085339604	68.2342
2.084501088	68.283
2.083663247	68.2674
2.082826078	68.2342
2.081989583	68.4002
2.081153758	68.492
2.080318605	68.4412
2.079484122	68.4998
