Name: Altered volcanic tuff
Type: Rock
Class: Igneous
Subclass: Felsic
Particle Size: Whole rock chips
Sample No.: Cup1
Owner: USGS
Wavelength range: 0.40 - 14.05 um
Origin: Cuprite, Nevada

Description: Altered volcanic tuff, white





Measurement: Directional Hemispherical Reflectance
First Column: X
Second Column: Y
X Units: Wavelength (micrometers)
Y Units: Reflectance (percent)
First X Value: 14.05105
Last X Value: 0.40000
Number of X Values: 2756
Additional Information: None

 14.051   2.8531
 14.013   2.6677
 13.975   2.7398
 13.938   2.6986
 13.900   2.7810
 13.863   2.9252
 13.826   3.0488
 13.790   2.9664
 13.753   3.0385
 13.717   3.0797
 13.680   3.1621
 13.644   3.1415
 13.609   3.3166
 13.573   3.2960
 13.538   3.3578
 13.502   3.3887
 13.467   3.4608
 13.432   3.5329
 13.398   3.7183
 13.363   3.7183
 13.329   3.7389
 13.295   3.7080
 13.261   3.7492
 13.227   3.7492
 13.193   3.7698
 13.160   3.8007
 13.126   3.8934
 13.093   3.9449
 13.060   4.1200
 13.027   4.2642
 12.995   4.4187
 12.962   4.5732
 12.930   4.7277
 12.898   4.8719
 12.866   5.1912
 12.834   5.4178
 12.802   5.5929
 12.771   5.6547
 12.739   5.6238
 12.708   5.4796
 12.677   5.2015
 12.646   4.9543
 12.616   4.9028
 12.585   4.8204
 12.554   4.6968
 12.524   4.5526
 12.494   4.4702
 12.464   4.2436
 12.434   3.9346
 12.404   3.4093
 12.375   2.9458
 12.345   2.5029
 12.316   2.2351
 12.287   2.1115
 12.258   2.1733
 12.229   2.2454
 12.200   2.3690
 12.171   2.3896
 12.143   2.4823
 12.115   2.5956
 12.086   2.7295
 12.058   2.7913
 12.030   2.9870
 12.002   3.0179
 11.975   3.0694
 11.947   3.1312
 11.920   3.2136
 11.892   3.2754
 11.865   3.3269
 11.838   3.3578
 11.811   3.5123
 11.784   3.6050
 11.757   3.6771
 11.731   3.6359
 11.704   3.6874
 11.678   3.7801
 11.652   3.9449
 11.626   3.9964
 11.600   4.0685
 11.574   4.1097
 11.548   4.2127
 11.522   4.2230
 11.497   4.3466
 11.471   4.4805
 11.446   4.5732
 11.421   4.5114
 11.396   4.5423
 11.371   4.5320
 11.346   4.6968
 11.321   4.7895
 11.297   4.8925
 11.272   4.9337
 11.248   5.0264
 11.223   5.0573
 11.199   5.1809
 11.175   5.3045
 11.151   5.4178
 11.127   5.5208
 11.103   5.6238
 11.079   5.6753
 11.056   5.8710
 11.032   5.9740
 11.009   6.0770
 10.985   6.1697
 10.962   6.3860
 10.939   6.4787
 10.916   6.5096
 10.893   6.3345
 10.870   6.1285
 10.848   5.9534
 10.825   5.8298
 10.802   5.6650
 10.780   5.5517
 10.758   5.4899
 10.735   5.5208
 10.713   5.4590
 10.691   5.5517
 10.669   5.6444
 10.647   5.6856
 10.625   5.6032
 10.604   5.5414
 10.582   5.5105
 10.560   5.4590
 10.539   5.2839
 10.518   5.1912
 10.496   5.2221
 10.475   5.2839
 10.454   5.2839
 10.433   5.3869
 10.412   5.5002
 10.391   5.6547
 10.370   5.7989
 10.350   6.0152
 10.329   6.1697
 10.309   6.3654
 10.288   6.5199
 10.268   6.6847
 10.247   6.7671
 10.227   6.9319
 10.207   7.0967
 10.187   7.3336
 10.167   7.4675
 10.147   7.7147
 10.127   7.9825
 10.108   8.2606
 10.088   8.4048
 10.068   8.6623
 10.049   9.0537
 10.029   9.4966
 10.010   9.6923
  9.991   9.9704
  9.972  10.4442
  9.952  10.8665
  9.933  11.1961
  9.914  11.5463
  9.895  11.6596
  9.877  11.8141
  9.858  11.9995
  9.839  12.2055
  9.821  12.3394
  9.802  12.4527
  9.783  12.5454
  9.765  12.7926
  9.747  13.1428
  9.728  13.6269
  9.710  14.1316
  9.692  14.6878
  9.674  15.1410
  9.656  15.5324
  9.638  15.7075
  9.620  15.8620
  9.602  15.9547
  9.585  16.0886
  9.567  16.2328
  9.549  16.4697
  9.532  16.6139
  9.514  16.8096
  9.497  17.0568
  9.479  17.4276
  9.462  17.7572
  9.445  18.1589
  9.428  18.6430
  9.411  19.2507
  9.394  19.9614
  9.377  20.7339
  9.360  21.5785
  9.343  22.4128
  9.326  23.1235
  9.309  24.0093
  9.293  24.9260
  9.276  25.8736
  9.259  26.7285
  9.243  27.5628
  9.226  28.2529
  9.210  28.9018
  9.194  29.4271
  9.178  29.8906
  9.161  30.1584
  9.145  30.2923
  9.129  30.3747
  9.113  30.3541
  9.097  30.1172
  9.081  29.7155
  9.065  29.2932
  9.049  28.9121
  9.034  28.3559
  9.018  27.7173
  9.002  27.2229
  8.987  27.1714
  8.971  27.4289
  8.956  27.9130
  8.940  28.3765
  8.925  28.5619
  8.909  28.5001
  8.894  28.3971
  8.879  28.1293
  8.864  27.6967
  8.849  27.1920
  8.834  26.6770
  8.819  26.1311
  8.804  25.5337
  8.789  24.8745
  8.774  24.2771
  8.759  23.7003
  8.744  23.1441
  8.730  22.5364
  8.715  21.9390
  8.700  21.3107
  8.686  20.6309
  8.671  19.8893
  8.657  19.1786
  8.642  18.3031
  8.628  17.5100
  8.614  17.0156
  8.599  16.9332
  8.585  17.0465
  8.571  17.1701
  8.557  17.1598
  8.543  17.0259
  8.529  16.7890
  8.515  16.5624
  8.501  16.3049
  8.487  15.9959
  8.473  15.6148
  8.459  15.2646
  8.445  14.8114
  8.431  14.3479
  8.418  13.8947
  8.404  13.5548
  8.391  13.1943
  8.377  12.9162
  8.363  12.7823
  8.350  12.8235
  8.337  12.8338
  8.323  12.8029
  8.310  12.7617
  8.297  12.7514
  8.283  12.6072
  8.270  12.4836
  8.257  12.4012
  8.244  12.3291
  8.231  12.1746
  8.218  11.9686
  8.205  11.7317
  8.192  11.5360
  8.179  11.3197
  8.166  11.0519
  8.153  10.6914
  8.140  10.2279
  8.128   9.7335
  8.115   9.3421
  8.102   8.9095
  8.090   8.4563
  8.077   7.9722
  8.064   7.6014
  8.052   7.2615
  8.039   6.9422
  8.027   6.5611
  8.015   6.3242
  8.002   6.1491
  7.990   5.8710
  7.978   5.5311
  7.965   5.3560
  7.953   5.2221
  7.941   5.0058
  7.929   4.7174
  7.917   4.4702
  7.905   4.2539
  7.893   4.0170
  7.881   3.8110
  7.869   3.6359
  7.857   3.4505
  7.845   3.3166
  7.833   3.1106
  7.821   2.9664
  7.809   2.8428
  7.798   2.7295
  7.786   2.5647
  7.774   2.4926
  7.763   2.4205
  7.751   2.3587
  7.739   2.2454
  7.728   2.1527
  7.716   2.0806
  7.705   1.9982
  7.694   1.9570
  7.682   1.9261
  7.671   1.8334
  7.659   1.7819
  7.648   1.6892
  7.637   1.6377
  7.626   1.6068
  7.614   1.6480
  7.603   1.5450
  7.592   1.4626
  7.581   1.4626
  7.570   1.5141
  7.559   1.4523
  7.548   1.3596
  7.537   1.2978
  7.526   1.3699
  7.515   1.4008
  7.504   1.4317
  7.493   1.3802
  7.483   1.3287
  7.472   1.2875
  7.461   1.2669
  7.450   1.2360
  7.440   1.2978
  7.429   1.2463
  7.418   1.2257
  7.408   1.1845
  7.397   1.1536
  7.387   1.1639
  7.376   1.2566
  7.366   1.2978
  7.355   1.2669
  7.345   1.1948
  7.334   1.1639
  7.324   1.1845
  7.314   1.2154
  7.303   1.2051
  7.293   1.1639
  7.283   1.1639
  7.273   1.1948
  7.263   1.1433
  7.252   1.1845
  7.242   1.1948
  7.232   1.1845
  7.222   1.1845
  7.212   1.2051
  7.202   1.1536
  7.192   1.1845
  7.182   1.1845
  7.172   1.1948
  7.162   1.1639
  7.152   1.1845
  7.143   1.2154
  7.133   1.2257
  7.123   1.2566
  7.113   1.2875
  7.103   1.2360
  7.094   1.2772
  7.084   1.2257
  7.074   1.2051
  7.065   1.2051
  7.055   1.2566
  7.046   1.2772
  7.036   1.2978
  7.026   1.2772
  7.017   1.2875
  7.007   1.2978
  6.998   1.3390
  6.989   1.3081
  6.979   1.3287
  6.970   1.3390
  6.960   1.3184
  6.951   1.2463
  6.942   1.3081
  6.932   1.3905
  6.923   1.4317
  6.914   1.3802
  6.905   1.3802
  6.896   1.3802
  6.886   1.3699
  6.877   1.3184
  6.868   1.3699
  6.859   1.3802
  6.850   1.4008
  6.841   1.4008
  6.832   1.4111
  6.823   1.4008
  6.814   1.4111
  6.805   1.3905
  6.796   1.3493
  6.787   1.3699
  6.778   1.4214
  6.770   1.3699
  6.761   1.3596
  6.752   1.4523
  6.743   1.4935
  6.734   1.4523
  6.726   1.4626
  6.717   1.4832
  6.708   1.4935
  6.700   1.5244
  6.691   1.5965
  6.682   1.5553
  6.674   1.5038
  6.665   1.5244
  6.657   1.5141
  6.648   1.5141
  6.640   1.5347
  6.631   1.4832
  6.623   1.4729
  6.614   1.5038
  6.606   1.5244
  6.597   1.5450
  6.589   1.6171
  6.581   1.6171
  6.572   1.6274
  6.564   1.6583
  6.556   1.6480
  6.547   1.6583
  6.539   1.7098
  6.531   1.6480
  6.523   1.6686
  6.514   1.7201
  6.506   1.7304
  6.498   1.7613
  6.490   1.8231
  6.482   1.8231
  6.474   1.8025
  6.466   1.7716
  6.458   1.7819
  6.450   1.8128
  6.442   1.8334
  6.434   1.8334
  6.426   1.8746
  6.418   1.9055
  6.410   1.9467
  6.402   1.9261
  6.394   1.9158
  6.386   1.9261
  6.378   1.8952
  6.370   1.8437
  6.363   1.8231
  6.355   1.8437
  6.347   1.8746
  6.339   1.8643
  6.332   1.8540
  6.324   1.7922
  6.316   1.7922
  6.308   1.8128
  6.301   1.8231
  6.293   1.7304
  6.286   1.6583
  6.278   1.6686
  6.270   1.6892
  6.263   1.6377
  6.255   1.6171
  6.248   1.6274
  6.240   1.6789
  6.233   1.7098
  6.225   1.6995
  6.218   1.6686
  6.210   1.6171
  6.203   1.6068
  6.195   1.6377
  6.188   1.5965
  6.181   1.5656
  6.173   1.5656
  6.166   1.5862
  6.159   1.6171
  6.151   1.6274
  6.144   1.6377
  6.137   1.6686
  6.130   1.5862
  6.122   1.5862
  6.115   1.6583
  6.108   1.6583
  6.101   1.6377
  6.094   1.6480
  6.086   1.6583
  6.079   1.6583
  6.072   1.6480
  6.065   1.6686
  6.058   1.6480
  6.051   1.6686
  6.044   1.7098
  6.037   1.7510
  6.030   1.7716
  6.023   1.8025
  6.016   1.8540
  6.009   1.8540
  6.002   1.8231
  5.995   1.8437
  5.988   1.8334
  5.981   1.8643
  5.974   1.8849
  5.967   1.8746
  5.960   1.9467
  5.954   2.0291
  5.947   2.0600
  5.940   2.0497
  5.933   2.0497
  5.926   2.0806
  5.920   2.0909
  5.913   2.1527
  5.906   2.1939
  5.899   2.2351
  5.893   2.1733
  5.886   2.1733
  5.879   2.2248
  5.873   2.2763
  5.866   2.2763
  5.859   2.3072
  5.853   2.3175
  5.846   2.3175
  5.840   2.3175
  5.833   2.3381
  5.827   2.3587
  5.820   2.3381
  5.813   2.3587
  5.807   2.3896
  5.800   2.3175
  5.794   2.3072
  5.788   2.3690
  5.781   2.4102
  5.775   2.3793
  5.768   2.3278
  5.762   2.3381
  5.755   2.3690
  5.749   2.3381
  5.743   2.3999
  5.736   2.4102
  5.730   2.3690
  5.724   2.3484
  5.717   2.3381
  5.711   2.3175
  5.705   2.3175
  5.698   2.2969
  5.692   2.3690
  5.686   2.4205
  5.680   2.3999
  5.674   2.3587
  5.667   2.3381
  5.661   2.3278
  5.655   2.3381
  5.649   2.3690
  5.643   2.3690
  5.637   2.3175
  5.630   2.3175
  5.624   2.3278
  5.618   2.3278
  5.612   2.3175
  5.606   2.3175
  5.600   2.3278
  5.594   2.3690
  5.588   2.3793
  5.582   2.3484
  5.576   2.3690
  5.570   2.4308
  5.564   2.4514
  5.558   2.4308
  5.552   2.4102
  5.546   2.3999
  5.540   2.4411
  5.534   2.4102
  5.528   2.3690
  5.523   2.4308
  5.517   2.4411
  5.511   2.4102
  5.505   2.3587
  5.499   2.3381
  5.493   2.3175
  5.487   2.2969
  5.482   2.3381
  5.476   2.3896
  5.470   2.3999
  5.464   2.3587
  5.459   2.3690
  5.453   2.4308
  5.447   2.4308
  5.441   2.3896
  5.436   2.3587
  5.430   2.3793
  5.424   2.3793
  5.419   2.4205
  5.413   2.4308
  5.407   2.3690
  5.402   2.2866
  5.396   2.2557
  5.390   2.2454
  5.385   2.2454
  5.379   2.1939
  5.374   2.1218
  5.368   2.1218
  5.363   2.1115
  5.357   2.0497
  5.352   2.0497
  5.346   2.0497
  5.341   2.0394
  5.335   2.0497
  5.330   2.0085
  5.324   1.9982
  5.319   2.0085
  5.313   1.9879
  5.308   2.0188
  5.302   2.0600
  5.297   2.0703
  5.291   2.0909
  5.286   2.0909
  5.281   2.0600
  5.275   2.1012
  5.270   2.1424
  5.265   2.1733
  5.259   2.1424
  5.254   2.1527
  5.249   2.2248
  5.243   2.2866
  5.238   2.3278
  5.233   2.3896
  5.227   2.3999
  5.222   2.3999
  5.217   2.4102
  5.212   2.4926
  5.206   2.5544
  5.201   2.5647
  5.196   2.5750
  5.191   2.5750
  5.186   2.6368
  5.180   2.6986
  5.175   2.6883
  5.170   2.6780
  5.165   2.6677
  5.160   2.6368
  5.155   2.6883
  5.150   2.6986
  5.145   2.6677
  5.139   2.6986
  5.134   2.7398
  5.129   2.7398
  5.124   2.7192
  5.119   2.7501
  5.114   2.7810
  5.109   2.7913
  5.104   2.8531
  5.099   2.8531
  5.094   2.8222
  5.089   2.8222
  5.084   2.8325
  5.079   2.8531
  5.074   2.8531
  5.069   2.8222
  5.064   2.8016
  5.059   2.8222
  5.054   2.8325
  5.049   2.8119
  5.044   2.7707
  5.040   2.7810
  5.035   2.7604
  5.030   2.7501
  5.025   2.8119
  5.020   2.8325
  5.015   2.8634
  5.010   2.8840
  5.005   2.8737
  5.001   2.8943
  4.996   2.8943
  4.991   2.8634
  4.986   2.9046
  4.981   2.9664
  4.977   2.9973
  4.972   2.9870
  4.967   2.9458
  4.962   2.9973
  4.958   3.0282
  4.953   3.0694
  4.948   3.1415
  4.943   3.1827
  4.939   3.2033
  4.934   3.3063
  4.929   3.4196
  4.925   3.5226
  4.920   3.6050
  4.915   3.6462
  4.911   3.6977
  4.906   3.8419
  4.901   3.9964
  4.897   4.1406
  4.892   4.2642
  4.888   4.3981
  4.883   4.5320
  4.878   4.6659
  4.874   4.7586
  4.869   4.9337
  4.865   5.0985
  4.860   5.3148
  4.856   5.4899
  4.851   5.5929
  4.846   5.7165
  4.842   5.9019
  4.837   6.0770
  4.833   6.2109
  4.828   6.3036
  4.824   6.3963
  4.819   6.6023
  4.815   6.7465
  4.810   6.8289
  4.806   6.9525
  4.802   7.0761
  4.797   7.1482
  4.793   7.2821
  4.788   7.4160
  4.784   7.5087
  4.779   7.6323
  4.775   7.7353
  4.771   7.8280
  4.766   7.9104
  4.762   7.9619
  4.758   8.0237
  4.753   8.1370
  4.749   8.2194
  4.744   8.2194
  4.740   8.2194
  4.736   8.2400
  4.731   8.2709
  4.727   8.3224
  4.723   8.3533
  4.719   8.4254
  4.714   8.4769
  4.710   8.4769
  4.706   8.4151
  4.701   8.3636
  4.697   8.3327
  4.693   8.3018
  4.689   8.2503
  4.684   8.2812
  4.680   8.3327
  4.676   8.3430
  4.672   8.3739
  4.668   8.4048
  4.663   8.3739
  4.659   8.3533
  4.655   8.3739
  4.651   8.3945
  4.647   8.4872
  4.643   8.6314
  4.638   8.7962
  4.634   8.8992
  4.630   8.9816
  4.626   9.1155
  4.622   9.2185
  4.618   9.3318
  4.614   9.4451
  4.610   9.6099
  4.605   9.7129
  4.601   9.7541
  4.597   9.8674
  4.593   9.9807
  4.589  10.0528
  4.585  10.1249
  4.581  10.2897
  4.577  10.3927
  4.573  10.4030
  4.569  10.4236
  4.565  10.4854
  4.561  10.5369
  4.557  10.5266
  4.553  10.5678
  4.549  10.5987
  4.545  10.5987
  4.541  10.6605
  4.537  10.6811
  4.533  10.6605
  4.529  10.6605
  4.525  10.6708
  4.521  10.6399
  4.517  10.5472
  4.513  10.4339
  4.509  10.4545
  4.505  10.4751
  4.502  10.3824
  4.498  10.3206
  4.494  10.2588
  4.490  10.2691
  4.486  10.2794
  4.482  10.2485
  4.478  10.2794
  4.474  10.2691
  4.470  10.2176
  4.467  10.2176
  4.463  10.3206
  4.459  10.4442
  4.455  10.5060
  4.451  10.5369
  4.447  10.5369
  4.444  10.5060
  4.440  10.5060
  4.436  10.4751
  4.432  10.5163
  4.428  10.5575
  4.425  10.5060
  4.421  10.5163
  4.417  10.6296
  4.413  10.6090
  4.410  10.6193
  4.406  10.6502
  4.402  10.6296
  4.398  10.6708
  4.395  10.7841
  4.391  10.8562
  4.387  10.9386
  4.384  10.9798
  4.380  11.0313
  4.376  11.1343
  4.372  11.2373
  4.369  11.3197
  4.365  11.4433
  4.361  11.5978
  4.358  11.7214
  4.354  11.7935
  4.350  11.9068
  4.347  11.9892
  4.343  12.0613
  4.340  12.2055
  4.336  12.3909
  4.332  12.5351
  4.329  12.6587
  4.325  12.7308
  4.321  12.8235
  4.318  12.9780
  4.314  13.1119
  4.311  13.2355
  4.307  13.3488
  4.304  13.4312
  4.300  13.5239
  4.296  13.6166
  4.293  13.7196
  4.289  13.8844
  4.286  14.0492
  4.282  14.1110
  4.279  14.1934
  4.275  14.2449
  4.272  14.2861
  4.268  14.3273
  4.265  14.4406
  4.261  14.5539
  4.258  14.5642
  4.254  14.5539
  4.251  14.6672
  4.247  14.8526
  4.244  15.0689
  4.240  15.2131
  4.237  15.2337
  4.233  15.2955
  4.230  15.2852
  4.226  15.3058
  4.223  15.3882
  4.219  15.3676
  4.216  15.2955
  4.213  15.2749
  4.209  15.2955
  4.206  15.2543
  4.202  15.1925
  4.199  15.2543
  4.196  15.2955
  4.192  15.3470
  4.189  15.3470
  4.185  15.3573
  4.182  15.4397
  4.179  15.5118
  4.175  15.5942
  4.172  15.7384
  4.169  15.8723
  4.165  15.8414
  4.162  15.8105
  4.159  15.8929
  4.155  15.9444
  4.152  15.9753
  4.149  16.0783
  4.145  16.2122
  4.142  16.2843
  4.139  16.3152
  4.135  16.3667
  4.132  16.5109
  4.129  16.6345
  4.126  16.6036
  4.122  16.5830
  4.119  16.7169
  4.116  16.8714
  4.112  16.8817
  4.109  16.9435
  4.106  16.9950
  4.103  17.0774
  4.099  17.1598
  4.096  17.2731
  4.093  17.4276
  4.090  17.5512
  4.086  17.5924
  4.083  17.5512
  4.080  17.6336
  4.077  17.7469
  4.074  17.7881
  4.070  17.8396
  4.067  17.9323
  4.064  18.0353
  4.061  18.0559
  4.058  18.0456
  4.055  18.1280
  4.051  18.2413
  4.048  18.3443
  4.045  18.4061
  4.042  18.4370
  4.039  18.5297
  4.036  18.5709
  4.032  18.5915
  4.029  18.6121
  4.026  18.6533
  4.023  18.7048
  4.020  18.7975
  4.017  18.8490
  4.014  18.8284
  4.011  18.8284
  4.008  18.8387
  4.004  18.9108
  4.001  19.0447
  3.998  19.1374
  3.995  19.1374
  3.992  19.0859
  3.989  19.0859
  3.986  19.2301
  3.983  19.3434
  3.980  19.2919
  3.977  19.2610
  3.974  19.3228
  3.971  19.4258
  3.968  19.4979
  3.965  19.4670
  3.962  19.3949
  3.959  19.4670
  3.956  19.4258
  3.953  19.3537
  3.950  19.4155
  3.947  19.5494
  3.944  19.5494
  3.941  19.4979
  3.938  19.5597
  3.935  19.6524
  3.932  19.6627
  3.929  19.7142
  3.926  19.7245
  3.923  19.6524
  3.920  19.6421
  3.917  19.7554
  3.914  19.7554
  3.911  19.7348
  3.908  19.7657
  3.905  19.7760
  3.902  19.7657
  3.899  19.7451
  3.896  19.7760
  3.893  19.7760
  3.890  19.7966
  3.887  19.8069
  3.884  19.7863
  3.882  19.7863
  3.879  19.7657
  3.876  19.6936
  3.873  19.6524
  3.870  19.6112
  3.867  19.6524
  3.864  19.7657
  3.861  19.7245
  3.858  19.6421
  3.856  19.6421
  3.853  19.6421
  3.850  19.6009
  3.847  19.6730
  3.844  19.7039
  3.841  19.6009
  3.838  19.5494
  3.836  19.5906
  3.833  19.5597
  3.830  19.5288
  3.827  19.5700
  3.824  19.6009
  3.822  19.5391
  3.819  19.4979
  3.816  19.4876
  3.813  19.4773
  3.810  19.4155
  3.807  19.3743
  3.805  19.3537
  3.802  19.3125
  3.799  19.2816
  3.796  19.2301
  3.794  19.1168
  3.791  19.0756
  3.788  19.1271
  3.785  19.1065
  3.782  19.0035
  3.780  18.9108
  3.777  18.8490
  3.774  18.8181
  3.771  18.6739
  3.769  18.5606
  3.766  18.5606
  3.763  18.6224
  3.761  18.4988
  3.758  18.3237
  3.755  18.2825
  3.752  18.2825
  3.750  18.2310
  3.747  18.0559
  3.744  17.7469
  3.742  17.5409
  3.739  17.6233
  3.736  17.7984
  3.733  17.7881
  3.731  17.7057
  3.728  17.6233
  3.725  17.5306
  3.723  17.5306
  3.720  17.4379
  3.717  17.2937
  3.715  17.0980
  3.712  16.8611
  3.709  16.6448
  3.707  16.4388
  3.704  16.4182
  3.702  16.4388
  3.699  16.3667
  3.696  16.3358
  3.694  16.3152
  3.691  16.1916
  3.688  16.1607
  3.686  16.1401
  3.683  16.2122
  3.680  16.3358
  3.678  16.4697
  3.675  16.5315
  3.673  16.5933
  3.670  16.6448
  3.667  16.6551
  3.665  16.5521
  3.662  16.5624
  3.660  16.6757
  3.657  16.6242
  3.655  16.5109
  3.652  16.4491
  3.649  16.3358
  3.647  16.2946
  3.644  16.2328
  3.642  16.2019
  3.639  16.2019
  3.637  16.1401
  3.634  16.0474
  3.632  15.9753
  3.629  15.8826
  3.626  15.9341
  3.624  15.8826
  3.621  15.7384
  3.619  15.5942
  3.616  15.4500
  3.614  15.4706
  3.611  15.3779
  3.609  15.2646
  3.606  15.2234
  3.604  15.2543
  3.601  15.2646
  3.599  15.1513
  3.596  15.0380
  3.594  14.9041
  3.591  14.8423
  3.589  14.7290
  3.586  14.6775
  3.584  14.6054
  3.581  14.5436
  3.579  14.5024
  3.576  14.4612
  3.574  14.4612
  3.571  14.3891
  3.569  14.3376
  3.567  14.3273
  3.564  14.2346
  3.562  14.1419
  3.559  14.0492
  3.557  13.9565
  3.554  13.9462
  3.552  13.9668
  3.549  13.8020
  3.547  13.6372
  3.545  13.6063
  3.542  13.5033
  3.540  13.3488
  3.537  13.2973
  3.535  13.2767
  3.533  13.3076
  3.530  13.2561
  3.528  13.1531
  3.525  12.9883
  3.523  12.9162
  3.521  12.9059
  3.518  12.8235
  3.516  12.6278
  3.513  12.5042
  3.511  12.2982
  3.509  12.1334
  3.506  12.0201
  3.504  11.9068
  3.502  11.6905
  3.499  11.5875
  3.497  11.6905
  3.494  11.7317
  3.492  11.7008
  3.490  11.7523
  3.487  11.6596
  3.485  11.4948
  3.483  11.4124
  3.480  11.4742
  3.478  11.3815
  3.476  11.2682
  3.473  11.2476
  3.471  11.2064
  3.469  11.1652
  3.466  11.1034
  3.464  11.0004
  3.462  10.9489
  3.460  10.8974
  3.457  10.7532
  3.455  10.7017
  3.453  10.6811
  3.450  10.5369
  3.448  10.3927
  3.446  10.2382
  3.443  10.1867
  3.441  10.2279
  3.439  10.1249
  3.437  10.0425
  3.434   9.9395
  3.432   9.7438
  3.430   9.7129
  3.428   9.6305
  3.425   9.5378
  3.423   9.4039
  3.421   9.3215
  3.418   9.2391
  3.416   9.1979
  3.414   9.0949
  3.412   9.0537
  3.409   9.0022
  3.407   8.9198
  3.405   8.7962
  3.403   8.8271
  3.401   8.9610
  3.398   8.9816
  3.396   8.8168
  3.394   8.8065
  3.392   8.9301
  3.389   8.8786
  3.387   8.6417
  3.385   8.6108
  3.383   8.6211
  3.381   8.4872
  3.378   8.3121
  3.376   8.3121
  3.374   8.2606
  3.372   8.3121
  3.370   8.4357
  3.367   8.4563
  3.365   8.3430
  3.363   8.4048
  3.361   8.2915
  3.359   8.1164
  3.357   8.0134
  3.354   7.9722
  3.352   7.9207
  3.350   7.8383
  3.348   7.7662
  3.346   7.7868
  3.344   7.8280
  3.341   7.8589
  3.339   7.7971
  3.337   7.6323
  3.335   7.5499
  3.333   7.5499
  3.331   7.5293
  3.329   7.4778
  3.326   7.4366
  3.324   7.4675
  3.322   7.4881
  3.320   7.3954
  3.318   7.2821
  3.316   7.1997
  3.314   7.1173
  3.312   7.1070
  3.309   7.1585
  3.307   7.0967
  3.305   6.9525
  3.303   7.0143
  3.301   6.9937
  3.299   6.7671
  3.297   6.6229
  3.295   6.6744
  3.293   6.6435
  3.291   6.6126
  3.288   6.5199
  3.286   6.5199
  3.284   6.5096
  3.282   6.4272
  3.280   6.3139
  3.278   6.2315
  3.276   6.2830
  3.274   6.3757
  3.272   6.3654
  3.270   6.3757
  3.268   6.2830
  3.266   6.1903
  3.264   6.0667
  3.262   6.0255
  3.259   6.0358
  3.257   6.0049
  3.255   5.9534
  3.253   5.9946
  3.251   5.9225
  3.249   5.8710
  3.247   5.7783
  3.245   5.7783
  3.243   5.7680
  3.241   5.7783
  3.239   5.6959
  3.237   5.6547
  3.235   5.6856
  3.233   5.6444
  3.231   5.5311
  3.229   5.4487
  3.227   5.4487
  3.225   5.5208
  3.223   5.4796
  3.221   5.4693
  3.219   5.4075
  3.217   5.3251
  3.215   5.2942
  3.213   5.3251
  3.211   5.3766
  3.209   5.3663
  3.207   5.2324
  3.205   5.1191
  3.203   4.9852
  3.201   5.0161
  3.199   4.9955
  3.197   4.9749
  3.195   5.0264
  3.193   5.1294
  3.191   5.0161
  3.189   4.8719
  3.187   4.8616
  3.185   4.9131
  3.183   4.8410
  3.182   4.8410
  3.180   4.9131
  3.178   4.9543
  3.176   4.7689
  3.174   4.5526
  3.172   4.4908
  3.170   4.4908
  3.168   4.6350
  3.166   4.8204
  3.164   4.7586
  3.162   4.5629
  3.160   4.5011
  3.158   4.4393
  3.156   4.4187
  3.154   4.4393
  3.152   4.3878
  3.151   4.3260
  3.149   4.3466
  3.147   4.3363
  3.145   4.3260
  3.143   4.4084
  3.141   4.3672
  3.139   4.3260
  3.137   4.2642
  3.135   4.3157
  3.133   4.2127
  3.132   4.0891
  3.130   4.0994
  3.128   4.0994
  3.126   4.1818
  3.124   4.1921
  3.122   4.0891
  3.120   4.0685
  3.118   4.0994
  3.117   4.1097
  3.115   4.0376
  3.113   3.9758
  3.111   3.9861
  3.109   4.0273
  3.107   3.9449
  3.105   3.9449
  3.103   3.9449
  3.102   3.9346
  3.100   3.9552
  3.098   3.9964
  3.096   3.9964
  3.094   4.0067
  3.092   3.8625
  3.091   3.7698
  3.089   3.7801
  3.087   3.8213
  3.085   3.8419
  3.083   3.8110
  3.081   3.8110
  3.079   3.8522
  3.078   3.8522
  3.076   3.8934
  3.074   3.8934
  3.072   3.8213
  3.070   3.6874
  3.069   3.6153
  3.067   3.5947
  3.065   3.5844
  3.063   3.6153
  3.061   3.6668
  3.060   3.7904
  3.058   3.8316
  3.056   3.7080
  3.054   3.6668
  3.052   3.5535
  3.051   3.5123
  3.049   3.6462
  3.047   3.8110
  3.045   3.8522
  3.043   3.8419
  3.042   3.8522
  3.040   3.8213
  3.038   3.6977
  3.036   3.5329
  3.034   3.4814
  3.033   3.5638
  3.031   3.7183
  3.029   3.6874
  3.027   3.6256
  3.026   3.6668
  3.024   3.5947
  3.022   3.6462
  3.020   3.6977
  3.019   3.6050
  3.017   3.4917
  3.015   3.5535
  3.013   3.5123
  3.012   3.5329
  3.010   3.5329
  3.008   3.5844
  3.006   3.5123
  3.005   3.3475
  3.003   3.2857
  3.001   3.3784
  2.999   3.3578
  2.998   3.4093
  2.996   3.5226
  2.994   3.5226
  2.992   3.3990
  2.991   3.3372
  2.989   3.2857
  2.987   3.4196
  2.986   3.4917
  2.984   3.4402
  2.982   3.3475
  2.980   3.3784
  2.979   3.3784
  2.977   3.3578
  2.975   3.3578
  2.974   3.2651
  2.972   3.3166
  2.970   3.3063
  2.968   3.2445
  2.967   3.2445
  2.965   3.3372
  2.963   3.5432
  2.962   3.4814
  2.960   3.3578
  2.958   3.3166
  2.957   3.3990
  2.955   3.3887
  2.953   3.2239
  2.952   3.1312
  2.950   3.2548
  2.948   3.2857
  2.947   3.2239
  2.945   3.1930
  2.943   3.2857
  2.942   3.2651
  2.940   3.3784
  2.938   3.3372
  2.937   3.1518
  2.935   3.0179
  2.933   3.0694
  2.932   3.2651
  2.930   3.3269
  2.928   3.2239
  2.927   3.2033
  2.925   3.1827
  2.923   3.2239
  2.922   3.1827
  2.920   3.1724
  2.918   3.1827
  2.917   3.2239
  2.915   3.1930
  2.913   3.2239
  2.912   3.2548
  2.910   3.2548
  2.909   3.2548
  2.907   3.2342
  2.905   3.1209
  2.904   2.9664
  2.902   2.8840
  2.900   3.2548
  2.899   3.4711
  2.897   3.2548
  2.896   2.9767
  2.894   3.0694
  2.892   3.3578
  2.891   3.4711
  2.889   3.2445
  2.887   2.9870
  2.886   2.9458
  2.884   3.2136
  2.883   3.3166
  2.881   3.2960
  2.879   3.3887
  2.878   3.2754
  2.876   3.3372
  2.875   3.4608
  2.873   3.3681
  2.871   3.4402
  2.870   3.3372
  2.868   3.2445
  2.867   3.2754
  2.865   3.3475
  2.864   3.2960
  2.862   3.3269
  2.860   3.3166
  2.859   3.2960
  2.857   3.2445
  2.856   3.3269
  2.854   3.3784
  2.853   3.5638
  2.851   3.6256
  2.849   3.4196
  2.848   3.2754
  2.846   3.4299
  2.845   3.4917
  2.843   3.4505
  2.842   3.4299
  2.840   3.6256
  2.838   3.6668
  2.837   3.6256
  2.835   3.7904
  2.834   3.8213
  2.832   3.5226
  2.831   3.5020
  2.829   3.5432
  2.828   3.4196
  2.826   3.5226
  2.825   3.6153
  2.823   3.5226
  2.821   3.5844
  2.820   3.4917
  2.818   3.5535
  2.817   3.6668
  2.815   3.6977
  2.814   3.6565
  2.812   3.6462
  2.811   3.5123
  2.809   3.5638
  2.808   3.6359
  2.806   3.5638
  2.805   3.5741
  2.803   3.5535
  2.802   3.6874
  2.800   3.7904
  2.799   3.6565
  2.797   3.5741
  2.796   3.5432
  2.794   3.6153
  2.793   3.5844
  2.791   3.5844
  2.790   3.7080
  2.788   3.6874
  2.787   3.4711
  2.785   3.4299
  2.784   3.5844
  2.782   3.6050
  2.781   3.3578
  2.779   3.3887
  2.778   3.4608
  2.776   3.4196
  2.775   3.4196
  2.773   3.5844
  2.772   3.5329
  2.770   3.5535
  2.769   3.5638
  2.767   3.3372
  2.766   2.8325
  2.764   2.6471
  2.763   2.6677
  2.761   2.5235
  2.760   2.3896
  2.758   2.3999
  2.757   2.3484
  2.756   2.4617
  2.754   2.5647
  2.753   2.7810
  2.751   2.8222
  2.750   2.9149
  2.748   2.6986
  2.747   2.5956
  2.745   2.5956
  2.744   2.5441
  2.742   2.5750
  2.741   2.7604
  2.740   2.8119
  2.738   2.4720
  2.737   2.0909
  2.735   2.0291
  2.734   1.9467
  2.732   2.1836
  2.731   2.2660
  2.729   2.3587
  2.728   2.6059
  2.727   2.5132
  2.725   2.2248
  2.724   2.1527
  2.722   2.0909
  2.721   2.1733
  2.719   2.4102
  2.718   2.7192
  2.717   2.7810
  2.715   2.8222
  2.714   2.7295
  2.712   2.6780
  2.711   2.5647
  2.709   2.6471
  2.708   2.8222
  2.707   2.9252
  2.705   2.9252
  2.704   2.9561
  2.702   2.8943
  2.701   2.9046
  2.700   2.7604
  2.698   2.9355
  2.697   3.0797
  2.695   3.4093
  2.694   3.6359
  2.693   3.6668
  2.691   3.6565
  2.690   3.8831
  2.688   4.3054
  2.687   4.5835
  2.686   4.6762
  2.684   4.7380
  2.683   4.8719
  2.681   5.3251
  2.680   5.4693
  2.679   5.6753
  2.677   5.8195
  2.676   5.7783
  2.675   6.0152
  2.673   6.6332
  2.672   7.0143
  2.670   7.1379
  2.669   7.3027
  2.668   7.4675
  2.666   7.5190
  2.665   7.8589
  2.664   8.1988
  2.662   8.5696
  2.661   8.6623
  2.659   8.9919
  2.658   9.4039
  2.657   9.4245
  2.655   9.3524
  2.654   9.6923
  2.653   9.9910
  2.651  10.0425
  2.650  10.0631
  2.649  10.1352
  2.647  10.1352
  2.646  10.4339
  2.645  10.7120
  2.643  11.1652
  2.642  11.4742
  2.640  11.5154
  2.639  11.5875
  2.638  11.7214
  2.636  11.6390
  2.635  11.8553
  2.634  12.1128
  2.632  12.1643
  2.631  12.1231
  2.630  12.4321
  2.628  12.6896
  2.627  12.6381
  2.626  12.8441
  2.624  13.2046
  2.623  13.1531
  2.622  13.0913
  2.620  13.2561
  2.619  13.4724
  2.618  13.3076
  2.617  13.2664
  2.615  13.8329
  2.614  14.0595
  2.613  13.7608
  2.611  13.8432
  2.610  13.9565
  2.609  13.9771
  2.607  13.9462
  2.606  13.7299
  2.605  13.4724
  2.603  13.6681
  2.602  14.0183
  2.601  14.2964
  2.599  14.3685
  2.598  14.5333
  2.597  14.3582
  2.596  13.9977
  2.594  14.1007
  2.593  14.5024
  2.592  14.4818
  2.590  14.5230
  2.589  14.7393
  2.588  14.6878
  2.586  14.5024
  2.585  14.6981
  2.584  14.8114
  2.583  14.8011
  2.581  14.7187
  2.580  14.5127
  2.579  14.4406
  2.577  14.7187
  2.576  14.7908
  2.575  14.6878
  2.574  14.7187
  2.572  14.7702
  2.571  14.9659
  2.570  14.9144
  2.569  14.6981
  2.567  14.8526
  2.566  15.1719
  2.565  15.2646
  2.563  15.2234
  2.562  15.2440
  2.561  15.1925
  2.560  15.4706
  2.558  15.6869
  2.557  15.7590
  2.556  15.7281
  2.555  15.6457
  2.553  15.6148
  2.552  15.6251
  2.551  15.5324
  2.550  15.5942
  2.548  15.6457
  2.547  15.8311
  2.546  15.7899
  2.545  15.6045
  2.543  15.5530
  2.542  15.4706
  2.541  15.4912
  2.540  15.9135
  2.538  15.9753
  2.537  15.8002
  2.536  15.8723
  2.535  16.0474
  2.533  16.1401
  2.532  16.2534
  2.531  16.3873
  2.530  16.5830
  2.528  16.5212
  2.527  16.1916
  2.526  15.9753
  2.525  16.2328
  2.524  16.5418
  2.522  16.6963
  2.521  16.6963
  2.520  16.7890
  2.519  16.6757
  2.517  16.5006
  2.516  16.7478
  2.515  16.8817
  2.514  16.7993
  2.513  16.9435
  2.511  16.9538
  2.510  16.8096
  2.509  16.7993
  2.508  16.7787
  2.506  16.9950
  2.505  17.2834
  2.504  17.1186
  2.503  17.1804
  2.502  17.3761
  2.500  17.4379
  2.500  17.4379
  2.496  18.0051
  2.492  17.9824
  2.488  18.4573
  2.484  18.4473
  2.480  18.5201
  2.476  18.3257
  2.472  18.7491
  2.468  18.7531
  2.464  18.6101
  2.460  18.8663
  2.456  19.3238
  2.452  19.3301
  2.448  19.1296
  2.444  19.4539
  2.440  19.5413
  2.436  19.3652
  2.432  19.5853
  2.428  19.9044
  2.424  20.2771
  2.420  20.8451
  2.416  20.8997
  2.412  21.3289
  2.408  21.5167
  2.404  21.8553
  2.400  21.7542
  2.396  21.8061
  2.392  22.5153
  2.388  23.1997
  2.384  23.4696
  2.380  24.1790
  2.376  24.8472
  2.372  25.4859
  2.368  25.6118
  2.364  25.7568
  2.360  25.8772
  2.356  25.9906
  2.352  26.1744
  2.348  26.0559
  2.344  25.7495
  2.340  25.5185
  2.336  25.2160
  2.332  24.8759
  2.328  24.6970
  2.324  24.4759
  2.320  24.4451
  2.316  24.8191
  2.312  25.3277
  2.308  25.7438
  2.304  26.3138
  2.300  26.8218
  2.296  26.8106
  2.292  27.0568
  2.288  27.1129
  2.284  27.1774
  2.280  27.2391
  2.276  27.2817
  2.272  27.5213
  2.268  27.5102
  2.264  27.4480
  2.260  27.4764
  2.256  27.4828
  2.252  27.4950
  2.248  27.5176
  2.244  27.5358
  2.240  27.3699
  2.236  27.1892
  2.232  26.9666
  2.228  26.5388
  2.224  25.9174
  2.220  25.2415
  2.216  24.7063
  2.212  24.4562
  2.208  24.3802
  2.204  24.5502
  2.200  24.5234
  2.196  24.4052
  2.192  24.1735
  2.188  23.8737
  2.184  23.5878
  2.180  23.5209
  2.176  23.5362
  2.172  23.5212
  2.168  23.5643
  2.164  23.6490
  2.160  23.7872
  2.156  24.0273
  2.152  24.2840
  2.148  24.5602
  2.144  24.8757
  2.140  25.2508
  2.136  25.4628
  2.132  25.7575
  2.128  26.1198
  2.124  26.4718
  2.120  26.8736
  2.116  27.2549
  2.112  27.5533
  2.108  27.7763
  2.104  27.9869
  2.100  28.1634
  2.096  28.2854
  2.092  28.3800
  2.088  28.4355
  2.084  28.4923
  2.080  28.5339
  2.076  28.5615
  2.072  28.5262
  2.068  28.4672
  2.064  28.4524
  2.060  28.5144
  2.056  28.5461
  2.052  28.5444
  2.048  28.5667
  2.044  28.5804
  2.040  28.5870
  2.036  28.5736
  2.032  28.5353
  2.028  28.4778
  2.024  28.4252
  2.020  28.3427
  2.016  28.2412
  2.012  28.1642
  2.008  28.0851
  2.004  28.0304
  2.000  28.0020
  1.996  27.9536
  1.992  27.8972
  1.988  27.8015
  1.984  27.7034
  1.980  27.5983
  1.976  27.4474
  1.972  27.2937
  1.968  27.1610
  1.964  27.0577
  1.960  26.9220
  1.956  26.7663
  1.952  26.6172
  1.948  26.5029
  1.944  26.4411
  1.940  26.3047
  1.936  26.1325
  1.932  25.9752
  1.928  25.7945
  1.924  25.6866
  1.920  25.6216
  1.916  25.5915
  1.912  25.6726
  1.908  25.9381
  1.904  26.3968
  1.900  27.0515
  1.896  27.8015
  1.892  28.5723
  1.888  29.3671
  1.884  30.2009
  1.880  31.0765
  1.876  31.8996
  1.872  32.6432
  1.868  33.2989
  1.864  33.8105
  1.860  34.1440
  1.856  34.3799
  1.852  34.5825
  1.848  34.7214
  1.844  34.8181
  1.840  34.9208
  1.836  34.9846
  1.832  35.0174
  1.828  35.0583
  1.824  35.0748
  1.820  35.0836
  1.816  35.0808
  1.812  35.0683
  1.808  35.0269
  1.804  34.9661
  1.800  34.8758
  1.796  34.7123
  1.792  34.4837
  1.788  34.2444
  1.784  34.0286
  1.780  33.8078
  1.776  33.6048
  1.772  33.4366
  1.768  33.3570
  1.764  33.3971
  1.760  33.5303
  1.756  33.7233
  1.752  33.9690
  1.748  34.2429
  1.744  34.5128
  1.740  34.7973
  1.736  35.0539
  1.732  35.2921
  1.728  35.5423
  1.724  35.7293
  1.720  35.8899
  1.716  36.0299
  1.712  36.1147
  1.708  36.1944
  1.704  36.2625
  1.700  36.3151
  1.696  36.3709
  1.692  36.4274
  1.688  36.4752
  1.684  36.5363
  1.680  36.5738
  1.676  36.5916
  1.672  36.5949
  1.668  36.6579
  1.664  36.7143
  1.660  36.7255
  1.656  36.7257
  1.652  36.7492
  1.648  36.8002
  1.644  36.8118
  1.640  36.8245
  1.636  36.8288
  1.632  36.8286
  1.628  36.8053
  1.624  36.8002
  1.620  36.7896
  1.616  36.7752
  1.612  36.7834
  1.608  36.7774
  1.604  36.7376
  1.600  36.7641
  1.596  36.7247
  1.592  36.7003
  1.588  36.6719
  1.584  36.6421
  1.580  36.6070
  1.576  36.6114
  1.572  36.5592
  1.568  36.5363
  1.564  36.4693
  1.560  36.4289
  1.556  36.3943
  1.552  36.3665
  1.548  36.3009
  1.544  36.1938
  1.540  36.0940
  1.536  36.0397
  1.532  35.9330
  1.528  35.8278
  1.524  35.7870
  1.520  35.6300
  1.516  35.4649
  1.512  35.3337
  1.508  35.0799
  1.504  34.7933
  1.500  34.5270
  1.496  34.3233
  1.492  33.9719
  1.488  33.3621
  1.484  32.4053
  1.480  31.5887
  1.476  31.5660
  1.472  32.1613
  1.468  32.7386
  1.464  33.0294
  1.460  33.1457
  1.456  33.2539
  1.452  33.3926
  1.448  33.4992
  1.444  33.5457
  1.440  33.3681
  1.436  32.9765
  1.432  32.5620
  1.428  32.3333
  1.424  32.6596
  1.420  33.3655
  1.416  33.9172
  1.412  34.2337
  1.408  34.4993
  1.404  34.8131
  1.400  35.2100
  1.396  35.5777
  1.392  35.9126
  1.388  36.3404
  1.384  36.7831
  1.380  37.2327
  1.376  37.7205
  1.372  38.1625
  1.368  38.4108
  1.364  38.5189
  1.360  38.4574
  1.356  38.5341
  1.352  38.6486
  1.348  38.8204
  1.344  38.9926
  1.340  39.1610
  1.336  39.2764
  1.332  39.3774
  1.328  39.4475
  1.324  39.5697
  1.320  39.6470
  1.316  39.7123
  1.312  39.7440
  1.308  39.8464
  1.304  39.8787
  1.300  39.9435
  1.296  39.9135
  1.292  39.9204
  1.288  39.8892
  1.284  39.8876
  1.280  39.7907
  1.276  39.6636
  1.272  39.6050
  1.268  39.6557
  1.264  39.6548
  1.260  39.7637
  1.256  39.8666
  1.252  39.8659
  1.248  39.9076
  1.244  39.9327
  1.240  39.9776
  1.236  39.9549
  1.232  39.9717
  1.228  39.9898
  1.224  40.0303
  1.220  40.0397
  1.216  40.1193
  1.212  40.0930
  1.208  40.0641
  1.204  40.0652
  1.200  40.0618
  1.196  40.0789
  1.192  40.0719
  1.188  40.0719
  1.184  40.0332
  1.180  40.0564
  1.176  40.0577
  1.172  40.0464
  1.168  40.0370
  1.164  40.0253
  1.160  40.0250
  1.156  40.0408
  1.152  40.0126
  1.148  40.0825
  1.144  40.1624
  1.140  40.1948
  1.136  40.2535
  1.132  40.2162
  1.128  40.2526
  1.124  40.2547
  1.120  40.2531
  1.116  40.2487
  1.112  40.2661
  1.108  40.3156
  1.104  40.3057
  1.100  40.3091
  1.096  40.3157
  1.092  40.2885
  1.088  40.2853
  1.084  40.2782
  1.080  40.2397
  1.076  40.2991
  1.072  40.2521
  1.068  40.2519
  1.064  40.2310
  1.060  40.1971
  1.056  40.2252
  1.052  40.1818
  1.048  40.1570
  1.044  40.1354
  1.040  40.0997
  1.036  40.1400
  1.032  40.1035
  1.028  40.0482
  1.024  39.9811
  1.020  39.9169
  1.016  39.8759
  1.012  39.8364
  1.008  39.7809
  1.004  39.7420
  1.000  39.7286
  0.996  39.6959
  0.992  39.6739
  0.988  39.6237
  0.984  39.6015
  0.980  39.5881
  0.976  39.5757
  0.972  39.5653
  0.968  39.5494
  0.964  39.5665
  0.960  39.5644
  0.956  39.5875
  0.952  39.5707
  0.948  39.5776
  0.944  39.6193
  0.940  39.6123
  0.936  39.6092
  0.932  39.5747
  0.928  39.5344
  0.924  39.5147
  0.920  39.5013
  0.916  39.5921
  0.912  39.7061
  0.908  39.7144
  0.904  39.7364
  0.900  39.7500
  0.896  39.7542
  0.892  39.7471
  0.888  39.7245
  0.884  39.7222
  0.880  39.7899
  0.876  39.7506
  0.872  39.7262
  0.868  39.6630
  0.864  39.7164
  0.860  39.6632
  0.856  40.0368
  0.852  40.6576
  0.848  40.6310
  0.844  40.5560
  0.840  40.4734
  0.836  40.6197
  0.832  40.5609
  0.828  40.4728
  0.824  40.4267
  0.820  40.4963
  0.816  40.4414
  0.812  40.4755
  0.808  40.4606
  0.804  40.4760
  0.800  40.4564
  0.796  40.4117
  0.792  40.3696
  0.788  40.2941
  0.784  40.3772
  0.780  40.3396
  0.776  40.3167
  0.772  40.3063
  0.768  40.3060
  0.764  40.2847
  0.760  40.2638
  0.756  40.2795
  0.752  40.2121
  0.748  40.2034
  0.744  40.1438
  0.740  40.1080
  0.736  40.1231
  0.732  40.1141
  0.728  40.1098
  0.724  40.0419
  0.720  39.9610
  0.716  39.9525
  0.712  39.9752
  0.708  39.9345
  0.704  39.9555
  0.700  39.9569
  0.696  39.8771
  0.692  39.8353
  0.688  39.8161
  0.684  39.7565
  0.680  39.7494
  0.676  39.7236
  0.672  39.7075
  0.668  39.6400
  0.664  39.5725
  0.660  39.5403
  0.656  39.5121
  0.652  39.4937
  0.648  39.4574
  0.644  39.4304
  0.640  39.4132
  0.636  39.3554
  0.632  39.3532
  0.628  39.3091
  0.624  39.2599
  0.620  39.2438
  0.616  39.1756
  0.612  39.1227
  0.608  39.0962
  0.604  39.0071
  0.600  38.9325
  0.596  38.9161
  0.592  38.8723
  0.588  38.7819
  0.584  38.7099
  0.580  38.6376
  0.576  38.5518
  0.572  38.4369
  0.568  38.3026
  0.564  38.1980
  0.560  38.0910
  0.556  37.9667
  0.552  37.8418
  0.548  37.7220
  0.544  37.5842
  0.540  37.4192
  0.536  37.2570
  0.532  37.1172
  0.528  36.9519
  0.524  36.8008
  0.520  36.6580
  0.516  36.4974
  0.512  36.3366
  0.508  36.1708
  0.504  35.9982
  0.500  35.8186
  0.496  35.6186
  0.492  35.4246
  0.488  35.2421
  0.484  35.0691
  0.480  34.9054
  0.476  34.7549
  0.472  34.6035
  0.468  34.4645
  0.464  34.2973
  0.460  34.1041
  0.456  33.9039
  0.452  33.6540
  0.448  33.4072
  0.444  33.1177
  0.440  32.7880
  0.436  32.4734
  0.432  32.1279
  0.428  31.7645
  0.424  31.4311
  0.420  31.0697
  0.416  30.7039
  0.412  30.3545
  0.408  29.9530
  0.404  29.5741
  0.400  29.1803
