Name: Altered volcanic tuff
Type: Rock
Class: Igneous
Subclass: Felsic
Particle Size: Whole rock chips
Sample No.: Cup2
Owner: USGS
Wavelength range: 0.40 - 14.05 um
Origin: Cuprite, Nevada

Description: Altered volcanic tuff, reddish brown and tan





Measurement: Directional Hemispherical Reflectance
First Column: X
Second Column: Y
X Units: Wavelength (micrometers)
Y Units: Reflectance (percent)
First X Value: 14.05105
Last X Value: 0.40000
Number of X Values: 2756
Additional Information: None

 14.051   2.6780
 14.013   2.6059
 13.975   2.6162
 13.938   2.6265
 13.900   2.7810
 13.863   2.8428
 13.826   2.9149
 13.790   2.8325
 13.753   2.8222
 13.717   2.8325
 13.680   2.9767
 13.644   2.9767
 13.609   3.0179
 13.573   2.9664
 13.538   3.0488
 13.502   3.0694
 13.467   3.0282
 13.432   3.0076
 13.398   3.0900
 13.363   3.1106
 13.329   3.2342
 13.295   3.2136
 13.261   3.2136
 13.227   3.1930
 13.193   3.2342
 13.160   3.2239
 13.126   3.3681
 13.093   3.4505
 13.060   3.4608
 13.027   3.5020
 12.995   3.6359
 12.962   3.7183
 12.930   3.7595
 12.898   3.7492
 12.866   3.8831
 12.834   3.9243
 12.802   3.9552
 12.771   3.9346
 12.739   3.9243
 12.708   3.8316
 12.677   3.7389
 12.646   3.6359
 12.616   3.5947
 12.585   3.5123
 12.554   3.5432
 12.524   3.4196
 12.494   3.2445
 12.464   3.0797
 12.434   2.9561
 12.404   2.7913
 12.375   2.6574
 12.345   2.4617
 12.316   2.3793
 12.287   2.3484
 12.258   2.5132
 12.229   2.5853
 12.200   2.6162
 12.171   2.7192
 12.143   2.8943
 12.115   2.9767
 12.086   3.2033
 12.058   3.3475
 12.030   3.3784
 12.002   3.3475
 11.975   3.4402
 11.947   3.5123
 11.920   3.6050
 11.892   3.6256
 11.865   3.7183
 11.838   3.7801
 11.811   3.8522
 11.784   3.9346
 11.757   3.9655
 11.731   3.9346
 11.704   3.9964
 11.678   4.0582
 11.652   4.1715
 11.626   4.2230
 11.600   4.2333
 11.574   4.3054
 11.548   4.3981
 11.522   4.4187
 11.497   4.4702
 11.471   4.4496
 11.446   4.5011
 11.421   4.5423
 11.396   4.6350
 11.371   4.5835
 11.346   4.6350
 11.321   4.6865
 11.297   4.8101
 11.272   4.8719
 11.248   4.9234
 11.223   4.9234
 11.199   5.0161
 11.175   4.9852
 11.151   5.0058
 11.127   5.0470
 11.103   5.1191
 11.079   5.1294
 11.056   5.1912
 11.032   5.1912
 11.009   5.2839
 10.985   5.2942
 10.962   5.3972
 10.939   5.4796
 10.916   5.5517
 10.893   5.5414
 10.870   5.4899
 10.848   5.4796
 10.825   5.5208
 10.802   5.4796
 10.780   5.4384
 10.758   5.4899
 10.735   5.6753
 10.713   5.7783
 10.691   5.7989
 10.669   5.7886
 10.647   5.7680
 10.625   5.8195
 10.604   5.9019
 10.582   5.9225
 10.560   5.9740
 10.539   5.9328
 10.518   6.0152
 10.496   6.1388
 10.475   6.3345
 10.454   6.3860
 10.433   6.4787
 10.412   6.5302
 10.391   6.6641
 10.370   6.8186
 10.350   6.9525
 10.329   7.0452
 10.309   7.1173
 10.288   7.1482
 10.268   7.3542
 10.247   7.5808
 10.227   7.6529
 10.207   7.7147
 10.187   7.9207
 10.167   7.9825
 10.147   8.0649
 10.127   8.2297
 10.108   8.3739
 10.088   8.5284
 10.068   8.7447
 10.049   8.9610
 10.029   9.0537
 10.010   9.1155
  9.991   9.3524
  9.972   9.6305
  9.952   9.8262
  9.933   9.9292
  9.914  10.1146
  9.895  10.2279
  9.877  10.3206
  9.858  10.3000
  9.839  10.3206
  9.821  10.4030
  9.802  10.5884
  9.783  10.7017
  9.765  10.7841
  9.747  10.9077
  9.728  11.0416
  9.710  11.1652
  9.692  11.3506
  9.674  11.4845
  9.656  11.6184
  9.638  11.6493
  9.620  11.7317
  9.602  11.7523
  9.585  11.8141
  9.567  11.8244
  9.549  11.8038
  9.532  11.8141
  9.514  11.8656
  9.497  11.9274
  9.479  12.0819
  9.462  12.1128
  9.445  12.1437
  9.428  12.2364
  9.411  12.4012
  9.394  12.4733
  9.377  12.5660
  9.360  12.6690
  9.343  12.7617
  9.326  12.8441
  9.309  12.9574
  9.293  12.9883
  9.276  13.1016
  9.259  13.2664
  9.243  13.5342
  9.226  13.7196
  9.210  13.8741
  9.194  13.9462
  9.178  13.9771
  9.161  13.9668
  9.145  14.0080
  9.129  13.9462
  9.113  13.9256
  9.097  13.9359
  9.081  13.9874
  9.065  14.0080
  9.049  13.9771
  9.034  13.8123
  9.018  13.6784
  9.002  13.6063
  8.987  13.7093
  8.971  13.7505
  8.956  13.7402
  8.940  13.7299
  8.925  13.8020
  8.909  13.7299
  8.894  13.6784
  8.879  13.6166
  8.864  13.5342
  8.849  13.5033
  8.834  13.5033
  8.819  13.5033
  8.804  13.5342
  8.789  13.4209
  8.774  13.2767
  8.759  13.2561
  8.744  13.2458
  8.730  13.1428
  8.715  13.0810
  8.700  12.9574
  8.686  12.8441
  8.671  12.7102
  8.657  12.5145
  8.642  12.2467
  8.628  12.0407
  8.614  11.9274
  8.599  11.9480
  8.585  11.9274
  8.571  11.9789
  8.557  12.0716
  8.543  12.0304
  8.529  11.8347
  8.515  11.7008
  8.501  11.5772
  8.487  11.4742
  8.473  11.2991
  8.459  11.0828
  8.445  10.8459
  8.431  10.6090
  8.418  10.3206
  8.404  10.0425
  8.391   9.7335
  8.377   9.4039
  8.363   9.1464
  8.350   9.0743
  8.337   9.0949
  8.323   9.1052
  8.310   9.0640
  8.297   9.0125
  8.283   8.8889
  8.270   8.8271
  8.257   8.8374
  8.244   8.7550
  8.231   8.6005
  8.218   8.4975
  8.205   8.3739
  8.192   8.2915
  8.179   8.1164
  8.166   7.9310
  8.153   7.7765
  8.140   7.5602
  8.128   7.1997
  8.115   6.9422
  8.102   6.7362
  8.090   6.4684
  8.077   6.1594
  8.064   5.9019
  8.052   5.7165
  8.039   5.5311
  8.027   5.2530
  8.015   5.1294
  8.002   5.0058
  7.990   4.8822
  7.978   4.7483
  7.965   4.6144
  7.953   4.5114
  7.941   4.3775
  7.929   4.2539
  7.917   4.2436
  7.905   4.2230
  7.893   4.0891
  7.881   3.9037
  7.869   3.7492
  7.857   3.6256
  7.845   3.6050
  7.833   3.5638
  7.821   3.4608
  7.809   3.3372
  7.798   3.3063
  7.786   3.2651
  7.774   3.1827
  7.763   3.0797
  7.751   3.0385
  7.739   3.0694
  7.728   3.0900
  7.716   2.9870
  7.705   2.8943
  7.694   2.8222
  7.682   2.7604
  7.671   2.6780
  7.659   2.6677
  7.648   2.6368
  7.637   2.5853
  7.626   2.5441
  7.614   2.5441
  7.603   2.5029
  7.592   2.4926
  7.581   2.4514
  7.570   2.4308
  7.559   2.3999
  7.548   2.4102
  7.537   2.3690
  7.526   2.3999
  7.515   2.3896
  7.504   2.3690
  7.493   2.3793
  7.483   2.3793
  7.472   2.3072
  7.461   2.3175
  7.450   2.3896
  7.440   2.3793
  7.429   2.2660
  7.418   2.2866
  7.408   2.2866
  7.397   2.2969
  7.387   2.2763
  7.376   2.2557
  7.366   2.2660
  7.355   2.2763
  7.345   2.2866
  7.334   2.2763
  7.324   2.2351
  7.314   2.2763
  7.303   2.2969
  7.293   2.2763
  7.283   2.2660
  7.273   2.3381
  7.263   2.3793
  7.252   2.3896
  7.242   2.3793
  7.232   2.3278
  7.222   2.3175
  7.212   2.3690
  7.202   2.3587
  7.192   2.3793
  7.182   2.3896
  7.172   2.3793
  7.162   2.3072
  7.152   2.3072
  7.143   2.3278
  7.133   2.3896
  7.123   2.3793
  7.113   2.3793
  7.103   2.4205
  7.094   2.3999
  7.084   2.3896
  7.074   2.4102
  7.065   2.3896
  7.055   2.3381
  7.046   2.3381
  7.036   2.4617
  7.026   2.4617
  7.017   2.3690
  7.007   2.3278
  6.998   2.4102
  6.989   2.3690
  6.979   2.3999
  6.970   2.3999
  6.960   2.3690
  6.951   2.4102
  6.942   2.4720
  6.932   2.5235
  6.923   2.5235
  6.914   2.4617
  6.905   2.4308
  6.896   2.4205
  6.886   2.4926
  6.877   2.5235
  6.868   2.5132
  6.859   2.5029
  6.850   2.5029
  6.841   2.5132
  6.832   2.5132
  6.823   2.5544
  6.814   2.5750
  6.805   2.4926
  6.796   2.5235
  6.787   2.5441
  6.778   2.5441
  6.770   2.5853
  6.761   2.6471
  6.752   2.6780
  6.743   2.6677
  6.734   2.6471
  6.726   2.6574
  6.717   2.6677
  6.708   2.7089
  6.700   2.7192
  6.691   2.7501
  6.682   2.7810
  6.674   2.8428
  6.665   2.8119
  6.657   2.7501
  6.648   2.7604
  6.640   2.8325
  6.631   2.8634
  6.623   2.8119
  6.614   2.8016
  6.606   2.8222
  6.597   2.8325
  6.589   2.8737
  6.581   2.9046
  6.572   2.8531
  6.564   2.8016
  6.556   2.8737
  6.547   2.9149
  6.539   2.8943
  6.531   2.8840
  6.523   2.9149
  6.514   2.9561
  6.506   3.0179
  6.498   3.0797
  6.490   3.1312
  6.482   3.1621
  6.474   3.1518
  6.466   3.1724
  6.458   3.1930
  6.450   3.2033
  6.442   3.1930
  6.434   3.1106
  6.426   3.0900
  6.418   3.1106
  6.410   3.1518
  6.402   3.1518
  6.394   3.1724
  6.386   3.1827
  6.378   3.1827
  6.370   3.1518
  6.363   3.1209
  6.355   3.1106
  6.347   3.0694
  6.339   2.9458
  6.332   2.9355
  6.324   2.9355
  6.316   2.8943
  6.308   2.9149
  6.301   2.9561
  6.293   2.8531
  6.286   2.7604
  6.278   2.7398
  6.270   2.7295
  6.263   2.7192
  6.255   2.6986
  6.248   2.6677
  6.240   2.6265
  6.233   2.5853
  6.225   2.6059
  6.218   2.5647
  6.210   2.5132
  6.203   2.5132
  6.195   2.5235
  6.188   2.4823
  6.181   2.5132
  6.173   2.5132
  6.166   2.4926
  6.159   2.4617
  6.151   2.5029
  6.144   2.5441
  6.137   2.5338
  6.130   2.5029
  6.122   2.5338
  6.115   2.5441
  6.108   2.5647
  6.101   2.5544
  6.094   2.5338
  6.086   2.5544
  6.079   2.5853
  6.072   2.5235
  6.065   2.5338
  6.058   2.6162
  6.051   2.6471
  6.044   2.6677
  6.037   2.6780
  6.030   2.6986
  6.023   2.7810
  6.016   2.8428
  6.009   2.8943
  6.002   2.9149
  5.995   2.9355
  5.988   2.9664
  5.981   2.9973
  5.974   3.0282
  5.967   3.0694
  5.960   3.0694
  5.954   3.0900
  5.947   3.1312
  5.940   3.1518
  5.933   3.2033
  5.926   3.2445
  5.920   3.2754
  5.913   3.3372
  5.906   3.3990
  5.899   3.4608
  5.893   3.4814
  5.886   3.5123
  5.879   3.5947
  5.873   3.6256
  5.866   3.6153
  5.859   3.6771
  5.853   3.7183
  5.846   3.6977
  5.840   3.6874
  5.833   3.7698
  5.827   3.8316
  5.820   3.8831
  5.813   3.8728
  5.807   3.8522
  5.800   3.8419
  5.794   3.8419
  5.788   3.8316
  5.781   3.8419
  5.775   3.8831
  5.768   3.9346
  5.762   3.9037
  5.755   3.8831
  5.749   3.8522
  5.743   3.8831
  5.736   3.9140
  5.730   3.9346
  5.724   3.9449
  5.717   3.9346
  5.711   3.9243
  5.705   3.9758
  5.698   3.9964
  5.692   4.0067
  5.686   3.9655
  5.680   3.9552
  5.674   3.9243
  5.667   3.9449
  5.661   3.9861
  5.655   3.9449
  5.649   3.8934
  5.643   3.8728
  5.637   3.8419
  5.630   3.8316
  5.624   3.8213
  5.618   3.8007
  5.612   3.7801
  5.606   3.8007
  5.600   3.8007
  5.594   3.8213
  5.588   3.8110
  5.582   3.8213
  5.576   3.8831
  5.570   3.9552
  5.564   3.9449
  5.558   3.9243
  5.552   3.9243
  5.546   3.9552
  5.540   3.9861
  5.534   3.9655
  5.528   3.9449
  5.523   4.0170
  5.517   4.0788
  5.511   4.1200
  5.505   4.1818
  5.499   4.2127
  5.493   4.2024
  5.487   4.2024
  5.482   4.2333
  5.476   4.2745
  5.470   4.2951
  5.464   4.3569
  5.459   4.4187
  5.453   4.4187
  5.447   4.4187
  5.441   4.4599
  5.436   4.4702
  5.430   4.5011
  5.424   4.4393
  5.419   4.3775
  5.413   4.3775
  5.407   4.3363
  5.402   4.2436
  5.396   4.1509
  5.390   4.0376
  5.385   4.0067
  5.379   3.9758
  5.374   3.8522
  5.368   3.8007
  5.363   3.7595
  5.357   3.7080
  5.352   3.6874
  5.346   3.6359
  5.341   3.6256
  5.335   3.6153
  5.330   3.5947
  5.324   3.6359
  5.319   3.6874
  5.313   3.6668
  5.308   3.6874
  5.302   3.7286
  5.297   3.8007
  5.291   3.8831
  5.286   3.9243
  5.281   3.9346
  5.275   3.9861
  5.270   4.0994
  5.265   4.1818
  5.259   4.2333
  5.254   4.3260
  5.249   4.4187
  5.243   4.4908
  5.238   4.6041
  5.233   4.7586
  5.227   4.8822
  5.222   5.0058
  5.217   5.1294
  5.212   5.2633
  5.206   5.3560
  5.201   5.4796
  5.196   5.5517
  5.191   5.5723
  5.186   5.5929
  5.180   5.6341
  5.175   5.7062
  5.170   5.7268
  5.165   5.7474
  5.160   5.8092
  5.155   5.8504
  5.150   5.8607
  5.145   5.9019
  5.139   5.9122
  5.134   5.9019
  5.129   5.9122
  5.124   5.9328
  5.119   5.9740
  5.114   5.9946
  5.109   6.0049
  5.104   6.0255
  5.099   6.0461
  5.094   6.0461
  5.089   6.0358
  5.084   5.9946
  5.079   5.9637
  5.074   5.9534
  5.069   5.9225
  5.064   5.9019
  5.059   5.8813
  5.054   5.8607
  5.049   5.8298
  5.044   5.7989
  5.040   5.7886
  5.035   5.8298
  5.030   5.8916
  5.025   5.8916
  5.020   5.9122
  5.015   5.8916
  5.010   5.9019
  5.005   5.9534
  5.001   5.9843
  4.996   6.0358
  4.991   6.0564
  4.986   6.0564
  4.981   6.0873
  4.977   6.1491
  4.972   6.2109
  4.967   6.2830
  4.962   6.3757
  4.958   6.4581
  4.953   6.6229
  4.948   6.7568
  4.943   6.8289
  4.939   6.9113
  4.934   7.0246
  4.929   7.1688
  4.925   7.3542
  4.920   7.5396
  4.915   7.7456
  4.911   7.9413
  4.906   8.1782
  4.901   8.4048
  4.897   8.6005
  4.892   8.8271
  4.888   9.0743
  4.883   9.3112
  4.878   9.5378
  4.874   9.7541
  4.869   9.9498
  4.865  10.1146
  4.860  10.3000
  4.856  10.4442
  4.851  10.5781
  4.846  10.7120
  4.842  10.8562
  4.837  11.0313
  4.833  11.1240
  4.828  11.1858
  4.824  11.2888
  4.819  11.3815
  4.815  11.4948
  4.810  11.6390
  4.806  11.7626
  4.802  11.8553
  4.797  11.8862
  4.793  11.9171
  4.788  11.9686
  4.784  12.0819
  4.779  12.1643
  4.775  12.1849
  4.771  12.2055
  4.766  12.2673
  4.762  12.3291
  4.758  12.4836
  4.753  12.5660
  4.749  12.5866
  4.744  12.6175
  4.740  12.6484
  4.736  12.6278
  4.731  12.6278
  4.727  12.6587
  4.723  12.6793
  4.719  12.7205
  4.714  12.7617
  4.710  12.8029
  4.706  12.8235
  4.701  12.7926
  4.697  12.8029
  4.693  12.8132
  4.689  12.7823
  4.684  12.8029
  4.680  12.7720
  4.676  12.7205
  4.672  12.7514
  4.668  12.8544
  4.663  12.9677
  4.659  13.0295
  4.655  13.0398
  4.651  13.0192
  4.647  13.0913
  4.643  13.1840
  4.638  13.2561
  4.634  13.4106
  4.630  13.5239
  4.626  13.6475
  4.622  13.6784
  4.618  13.7402
  4.614  13.8432
  4.610  13.9771
  4.605  14.1316
  4.601  14.1625
  4.597  14.2037
  4.593  14.2861
  4.589  14.3891
  4.585  14.4303
  4.581  14.5127
  4.577  14.6157
  4.573  14.6672
  4.569  14.7393
  4.565  14.8114
  4.561  14.8938
  4.557  14.9659
  4.553  14.9659
  4.549  15.0174
  4.545  15.0998
  4.541  15.1410
  4.537  15.1410
  4.533  15.1719
  4.529  15.2646
  4.525  15.2749
  4.521  15.2028
  4.517  15.2028
  4.513  15.1513
  4.509  15.0998
  4.505  15.0689
  4.502  15.0380
  4.498  15.0998
  4.494  15.1616
  4.490  15.1410
  4.486  15.0998
  4.482  15.0998
  4.478  15.1616
  4.474  15.1925
  4.470  15.2131
  4.467  15.2749
  4.463  15.3161
  4.459  15.3058
  4.455  15.3470
  4.451  15.4191
  4.447  15.4809
  4.444  15.5839
  4.440  15.6869
  4.436  15.6766
  4.432  15.6354
  4.428  15.6972
  4.425  15.7590
  4.421  15.8208
  4.417  15.8723
  4.413  15.8723
  4.410  15.9650
  4.406  16.0680
  4.402  16.0989
  4.398  16.1813
  4.395  16.2843
  4.391  16.3667
  4.387  16.4182
  4.384  16.5006
  4.380  16.6139
  4.376  16.7890
  4.372  16.9229
  4.369  16.9950
  4.365  17.0877
  4.361  17.1598
  4.358  17.3040
  4.354  17.4379
  4.350  17.5615
  4.347  17.6027
  4.343  17.6748
  4.340  17.7675
  4.336  17.8808
  4.332  17.9735
  4.329  18.0868
  4.325  18.1795
  4.321  18.2104
  4.318  18.3031
  4.314  18.4988
  4.311  18.6739
  4.307  18.7769
  4.304  18.7975
  4.300  18.8387
  4.296  18.9417
  4.293  19.0447
  4.289  19.1374
  4.286  19.2301
  4.282  19.3022
  4.279  19.4361
  4.275  19.5082
  4.272  19.6318
  4.268  19.7039
  4.265  19.7863
  4.261  19.9099
  4.258  19.9511
  4.254  19.9820
  4.251  20.1365
  4.247  20.1983
  4.244  20.2601
  4.240  20.3425
  4.237  20.4867
  4.233  20.5691
  4.230  20.6000
  4.226  20.6000
  4.223  20.5691
  4.219  20.6309
  4.216  20.6618
  4.213  20.6309
  4.209  20.6206
  4.206  20.5176
  4.202  20.4249
  4.199  20.4249
  4.196  20.4970
  4.192  20.5485
  4.189  20.6103
  4.185  20.7030
  4.182  20.8266
  4.179  20.8987
  4.175  20.9914
  4.172  21.0841
  4.169  21.0738
  4.165  21.1253
  4.162  21.2283
  4.159  21.2901
  4.155  21.4034
  4.152  21.6300
  4.149  21.7536
  4.145  21.7742
  4.142  21.7845
  4.139  21.8566
  4.135  21.9596
  4.132  22.1759
  4.129  22.3613
  4.126  22.3304
  4.122  22.3819
  4.119  22.4952
  4.116  22.6291
  4.112  22.7630
  4.109  22.8557
  4.106  22.9484
  4.103  23.0514
  4.099  23.1647
  4.096  23.2574
  4.093  23.3810
  4.090  23.4737
  4.086  23.4943
  4.083  23.5355
  4.080  23.6591
  4.077  23.7209
  4.074  23.8342
  4.070  23.9475
  4.067  24.1020
  4.064  24.2359
  4.061  24.2050
  4.058  24.2977
  4.055  24.4728
  4.051  24.4007
  4.048  24.2977
  4.045  24.4522
  4.042  24.5243
  4.039  24.5552
  4.036  24.6994
  4.032  24.7818
  4.029  24.7921
  4.026  24.7715
  4.023  24.7406
  4.020  24.7921
  4.017  24.9363
  4.014  24.9775
  4.011  24.9775
  4.008  25.0599
  4.004  25.0496
  4.001  24.9878
  3.998  24.9363
  3.995  24.9981
  3.992  25.1011
  3.989  25.1011
  3.986  25.0908
  3.983  25.1526
  3.980  25.1320
  3.977  25.1011
  3.974  25.1629
  3.971  25.1320
  3.968  25.1423
  3.965  25.2144
  3.962  25.2659
  3.959  25.3277
  3.956  25.3586
  3.953  25.3586
  3.950  25.3277
  3.947  25.3483
  3.944  25.3689
  3.941  25.3998
  3.938  25.5028
  3.935  25.5131
  3.932  25.3689
  3.929  25.3586
  3.926  25.3998
  3.923  25.3792
  3.920  25.3483
  3.917  25.3277
  3.914  25.4307
  3.911  25.4719
  3.908  25.4410
  3.905  25.3380
  3.902  25.2968
  3.899  25.4410
  3.896  25.4410
  3.893  25.3277
  3.890  25.2350
  3.887  25.1629
  3.884  25.1938
  3.882  25.1732
  3.879  25.1732
  3.876  25.1938
  3.873  25.1114
  3.870  24.9981
  3.867  24.9672
  3.864  24.9775
  3.861  24.9878
  3.858  24.9981
  3.856  24.9672
  3.853  24.9672
  3.850  24.9569
  3.847  24.9981
  3.844  24.9672
  3.841  24.9260
  3.838  24.9054
  3.836  24.8642
  3.833  24.8127
  3.830  24.7097
  3.827  24.6376
  3.824  24.6685
  3.822  24.6685
  3.819  24.6788
  3.816  24.6376
  3.813  24.5861
  3.810  24.5037
  3.807  24.3801
  3.805  24.4213
  3.802  24.4522
  3.799  24.3698
  3.796  24.3698
  3.794  24.3286
  3.791  24.2359
  3.788  24.2050
  3.785  24.2359
  3.782  24.2256
  3.780  24.1226
  3.777  23.9681
  3.774  23.8960
  3.771  23.8548
  3.769  23.8548
  3.766  23.7930
  3.763  23.6694
  3.761  23.6797
  3.758  23.6900
  3.755  23.5973
  3.752  23.4531
  3.750  23.2677
  3.747  23.1235
  3.744  22.9999
  3.742  22.9690
  3.739  22.9999
  3.736  23.0102
  3.733  22.9072
  3.731  22.9072
  3.728  22.8763
  3.725  22.8145
  3.723  22.7321
  3.720  22.7218
  3.717  22.6806
  3.715  22.6394
  3.712  22.6806
  3.709  22.5570
  3.707  22.3819
  3.704  22.3819
  3.702  22.3510
  3.699  22.2583
  3.696  22.2068
  3.694  22.2068
  3.691  22.1553
  3.688  22.0214
  3.686  21.8463
  3.683  21.8566
  3.680  21.9184
  3.678  21.9493
  3.675  21.8669
  3.673  21.8463
  3.670  21.8051
  3.667  21.7330
  3.665  21.6918
  3.662  21.6506
  3.660  21.5682
  3.657  21.4446
  3.655  21.2489
  3.652  21.1459
  3.649  21.1253
  3.647  21.1356
  3.644  21.1562
  3.642  21.0738
  3.639  20.9502
  3.637  20.8266
  3.634  20.7545
  3.632  20.7339
  3.629  20.7133
  3.626  20.6000
  3.624  20.3631
  3.621  20.3013
  3.619  20.2601
  3.616  20.1777
  3.614  20.1159
  3.611  20.0850
  3.609  19.9511
  3.606  19.8481
  3.604  19.8069
  3.601  19.7039
  3.599  19.5391
  3.596  19.4464
  3.594  19.3537
  3.591  19.3434
  3.589  19.2816
  3.586  19.2301
  3.584  19.1271
  3.581  19.0241
  3.579  18.8902
  3.576  18.8696
  3.574  18.8387
  3.571  18.7151
  3.569  18.6430
  3.567  18.5091
  3.564  18.3031
  3.562  18.2825
  3.559  18.2722
  3.557  18.1383
  3.554  18.0147
  3.552  18.0147
  3.549  18.0147
  3.547  17.9117
  3.545  17.7881
  3.542  17.7263
  3.540  17.5821
  3.537  17.4379
  3.535  17.3452
  3.533  17.2525
  3.530  17.1598
  3.528  17.1186
  3.525  17.0259
  3.523  16.9023
  3.521  16.7581
  3.518  16.6448
  3.516  16.4903
  3.513  16.4182
  3.511  16.2843
  3.509  16.0577
  3.506  15.9341
  3.504  15.8826
  3.502  15.8517
  3.499  15.8517
  3.497  15.8311
  3.494  15.7693
  3.492  15.6766
  3.490  15.7487
  3.487  15.6766
  3.485  15.4500
  3.483  15.3367
  3.480  15.3264
  3.478  15.3367
  3.476  15.3676
  3.473  15.2852
  3.471  15.1616
  3.469  15.0071
  3.466  14.9144
  3.464  14.8732
  3.462  14.8114
  3.460  14.6981
  3.457  14.6775
  3.455  14.6569
  3.453  14.4612
  3.450  14.3582
  3.448  14.3479
  3.446  14.2140
  3.443  14.1934
  3.441  14.1831
  3.439  14.0698
  3.437  13.9050
  3.434  13.7608
  3.432  13.5960
  3.430  13.5342
  3.428  13.4827
  3.425  13.3694
  3.423  13.2973
  3.421  13.2767
  3.418  13.1634
  3.416  13.0604
  3.414  12.9471
  3.412  12.8544
  3.409  12.7823
  3.407  12.8647
  3.405  12.8441
  3.403  12.7926
  3.401  12.6896
  3.398  12.7308
  3.396  12.7823
  3.394  12.6896
  3.392  12.5969
  3.389  12.5042
  3.387  12.4115
  3.385  12.3188
  3.383  12.1849
  3.381  12.0510
  3.378  12.0510
  3.376  12.1849
  3.374  12.1952
  3.372  12.1849
  3.370  12.0407
  3.367  11.9995
  3.365  11.8965
  3.363  11.8141
  3.361  11.8862
  3.359  11.8450
  3.357  11.7420
  3.354  11.7111
  3.352  11.7317
  3.350  11.6287
  3.348  11.5154
  3.346  11.5566
  3.344  11.5360
  3.341  11.5257
  3.339  11.4124
  3.337  11.2785
  3.335  11.3815
  3.333  11.4227
  3.331  11.2579
  3.329  11.2270
  3.326  11.1652
  3.324  11.0725
  3.322  11.0107
  3.320  10.9798
  3.318  10.9798
  3.316  10.9695
  3.314  10.8356
  3.312  10.7223
  3.309  10.5987
  3.307  10.5472
  3.305  10.5987
  3.303  10.6296
  3.301  10.5987
  3.299  10.5163
  3.297  10.5472
  3.295  10.5369
  3.293  10.3618
  3.291  10.2279
  3.288  10.3206
  3.286  10.3515
  3.284  10.1764
  3.282  10.1146
  3.280  10.0734
  3.278  10.0734
  3.276  10.0116
  3.274   9.9086
  3.272   9.9086
  3.270   9.8468
  3.268   9.7129
  3.266   9.6511
  3.264   9.6717
  3.262   9.6820
  3.259   9.6305
  3.257   9.5790
  3.255   9.5275
  3.253   9.5172
  3.251   9.5378
  3.249   9.5790
  3.247   9.5275
  3.245   9.4039
  3.243   9.2906
  3.241   9.2906
  3.239   9.3009
  3.237   9.3627
  3.235   9.1979
  3.233   9.1361
  3.231   9.2494
  3.229   9.2494
  3.227   9.0640
  3.225   9.0228
  3.223   9.0125
  3.221   8.9198
  3.219   8.8580
  3.217   9.0022
  3.215   9.0228
  3.213   8.9198
  3.211   8.8683
  3.209   8.6829
  3.207   8.6314
  3.205   8.6726
  3.203   8.5696
  3.201   8.5284
  3.199   8.6108
  3.197   8.5799
  3.195   8.4975
  3.193   8.3842
  3.191   8.3224
  3.189   8.4975
  3.187   8.4666
  3.185   8.3842
  3.183   8.2091
  3.182   8.1679
  3.180   8.1370
  3.178   8.0752
  3.176   8.0752
  3.174   8.1061
  3.172   8.1782
  3.170   8.0958
  3.168   7.9104
  3.166   7.8280
  3.164   7.8795
  3.162   7.8898
  3.160   7.7250
  3.158   7.6838
  3.156   7.6735
  3.154   7.6838
  3.152   7.7044
  3.151   7.6323
  3.149   7.5602
  3.147   7.6838
  3.145   7.7868
  3.143   7.6220
  3.141   7.4675
  3.139   7.5499
  3.137   7.4984
  3.135   7.3336
  3.133   7.1791
  3.132   7.1070
  3.130   7.1276
  3.128   7.1379
  3.126   7.1482
  3.124   7.1791
  3.122   7.1894
  3.120   7.1791
  3.118   7.0967
  3.117   7.0452
  3.115   6.9525
  3.113   6.8907
  3.111   6.9422
  3.109   7.0040
  3.107   6.9319
  3.105   6.9937
  3.103   6.9731
  3.102   6.7671
  3.100   6.6126
  3.098   6.6847
  3.096   6.8186
  3.094   6.8083
  3.092   6.7671
  3.091   6.7568
  3.089   6.7465
  3.087   6.7156
  3.085   6.6950
  3.083   6.7156
  3.081   6.6332
  3.079   6.5096
  3.078   6.4890
  3.076   6.4890
  3.074   6.4890
  3.072   6.5199
  3.070   6.6126
  3.069   6.4787
  3.067   6.3448
  3.065   6.4272
  3.063   6.4787
  3.061   6.4478
  3.060   6.4169
  3.058   6.4684
  3.056   6.3963
  3.054   6.4684
  3.052   6.5199
  3.051   6.4993
  3.049   6.3654
  3.047   6.4066
  3.045   6.4272
  3.043   6.2418
  3.042   6.1388
  3.040   6.2521
  3.038   6.3345
  3.036   6.3139
  3.034   6.2830
  3.033   6.3036
  3.031   6.3551
  3.029   6.3139
  3.027   6.2521
  3.026   6.3242
  3.024   6.3242
  3.022   6.2315
  3.020   6.1491
  3.019   5.9740
  3.017   5.9431
  3.015   5.9843
  3.013   5.8813
  3.012   5.9843
  3.010   6.1182
  3.008   6.0049
  3.006   5.9843
  3.005   6.1697
  3.003   6.0667
  3.001   5.9431
  2.999   5.8710
  2.998   6.0358
  2.996   5.9637
  2.994   5.8298
  2.992   5.9328
  2.991   5.9431
  2.989   5.9225
  2.987   6.0255
  2.986   5.8710
  2.984   5.8298
  2.982   5.9328
  2.980   5.8916
  2.979   5.8195
  2.977   5.7886
  2.975   5.6753
  2.974   5.6444
  2.972   5.6135
  2.970   5.6959
  2.968   5.5929
  2.967   5.5311
  2.965   5.6959
  2.963   5.6238
  2.962   5.5002
  2.960   5.5208
  2.958   5.6444
  2.957   5.7783
  2.955   5.7062
  2.953   5.4178
  2.952   5.2736
  2.950   5.2633
  2.948   5.3045
  2.947   5.5311
  2.945   5.6650
  2.943   5.6959
  2.942   5.5620
  2.940   5.5208
  2.938   5.4899
  2.937   5.3972
  2.935   5.4075
  2.933   5.5414
  2.932   5.5620
  2.930   5.4796
  2.928   5.5723
  2.927   5.7680
  2.925   5.7268
  2.923   5.5517
  2.922   5.5517
  2.920   5.6135
  2.918   5.6238
  2.917   5.7886
  2.915   5.6547
  2.913   5.6135
  2.912   5.6341
  2.910   5.4796
  2.909   5.6032
  2.907   5.7680
  2.905   5.6547
  2.904   5.5517
  2.902   5.5929
  2.900   5.7371
  2.899   5.8195
  2.897   5.6959
  2.896   5.6032
  2.894   5.6650
  2.892   5.5002
  2.891   5.5105
  2.889   5.6135
  2.887   5.7165
  2.886   5.8504
  2.884   5.9225
  2.883   5.8710
  2.881   5.8195
  2.879   6.0152
  2.878   6.1697
  2.876   6.1285
  2.875   5.9946
  2.873   5.6856
  2.871   5.6753
  2.870   5.6959
  2.868   5.8298
  2.867   6.0667
  2.865   6.1182
  2.864   6.0873
  2.862   5.9534
  2.860   5.8401
  2.859   6.0358
  2.857   6.0873
  2.856   6.0770
  2.854   6.3036
  2.853   6.2624
  2.851   6.1079
  2.849   6.1285
  2.848   6.0152
  2.846   6.0667
  2.845   6.3242
  2.843   6.3242
  2.842   6.2212
  2.840   6.1182
  2.838   6.1079
  2.837   6.3139
  2.835   6.3551
  2.834   6.3860
  2.832   6.2727
  2.831   6.4272
  2.829   6.4890
  2.828   6.3860
  2.826   6.3345
  2.825   6.3139
  2.823   6.2521
  2.821   6.3448
  2.820   6.3963
  2.818   6.5611
  2.817   6.5611
  2.815   6.4272
  2.814   6.3242
  2.812   6.2006
  2.811   6.2212
  2.809   6.4684
  2.808   6.5611
  2.806   6.6126
  2.805   6.5405
  2.803   6.3345
  2.802   6.3139
  2.800   6.3345
  2.799   6.1079
  2.797   6.3036
  2.796   6.4684
  2.794   6.4169
  2.793   6.4581
  2.791   6.4066
  2.790   6.4066
  2.788   6.3757
  2.787   6.2212
  2.785   6.2109
  2.784   6.3654
  2.782   6.3242
  2.781   5.9328
  2.779   5.8092
  2.778   5.7165
  2.776   5.8504
  2.775   6.1182
  2.773   6.0152
  2.772   5.8504
  2.770   6.0152
  2.769   5.8504
  2.767   5.5620
  2.766   5.0367
  2.764   4.2951
  2.763   3.8934
  2.761   4.0891
  2.760   4.4702
  2.758   4.8925
  2.757   5.2942
  2.756   5.8916
  2.754   6.0976
  2.753   6.2315
  2.751   6.1182
  2.750   5.9534
  2.748   5.9946
  2.747   6.1903
  2.745   6.0461
  2.744   5.9431
  2.742   5.7989
  2.741   5.4796
  2.740   5.2324
  2.738   5.0264
  2.737   5.0573
  2.735   5.2942
  2.734   5.5517
  2.732   5.8504
  2.731   5.8092
  2.729   5.8813
  2.728   5.9534
  2.727   6.0049
  2.725   5.9122
  2.724   5.7886
  2.722   5.8916
  2.721   6.2006
  2.719   6.4169
  2.718   6.2212
  2.717   5.9225
  2.715   5.9019
  2.714   5.7371
  2.712   5.4281
  2.711   4.9646
  2.709   4.4805
  2.708   4.2539
  2.707   4.3775
  2.705   4.7998
  2.704   5.1912
  2.702   5.6135
  2.701   6.5302
  2.700   7.4366
  2.698   8.3945
  2.697   9.5893
  2.695  11.0416
  2.694  12.0304
  2.693  12.8750
  2.691  14.0492
  2.690  15.3264
  2.688  16.5521
  2.687  17.8705
  2.686  18.7769
  2.684  19.4773
  2.683  20.3734
  2.681  21.3622
  2.680  22.1347
  2.679  22.8454
  2.677  23.4119
  2.676  23.9784
  2.675  24.5346
  2.673  25.0805
  2.672  25.6882
  2.670  26.4710
  2.669  27.3156
  2.668  28.0366
  2.666  28.6855
  2.665  28.9842
  2.664  29.1387
  2.662  29.4168
  2.661  29.9833
  2.659  30.1069
  2.658  30.0348
  2.657  30.6322
  2.655  31.2502
  2.654  31.5489
  2.653  31.6622
  2.651  31.9300
  2.650  32.0948
  2.649  32.3729
  2.647  32.6613
  2.646  32.8982
  2.645  32.9909
  2.643  33.3205
  2.642  33.7119
  2.640  33.8664
  2.639  33.8458
  2.638  33.8870
  2.636  34.0003
  2.635  34.2475
  2.634  34.5874
  2.632  34.8861
  2.631  35.1642
  2.630  35.4114
  2.628  35.2260
  2.627  35.2363
  2.626  35.4629
  2.624  35.5041
  2.623  35.5762
  2.622  35.8028
  2.620  35.8234
  2.619  35.8234
  2.618  36.0294
  2.617  36.1839
  2.615  36.2663
  2.614  36.5856
  2.613  36.8328
  2.611  36.6783
  2.610  36.5856
  2.609  36.3590
  2.607  36.2869
  2.606  36.7401
  2.605  36.8431
  2.603  36.6268
  2.602  36.7710
  2.601  36.8534
  2.599  36.8122
  2.598  37.1933
  2.597  37.1933
  2.596  37.4199
  2.594  37.5229
  2.593  37.3890
  2.592  37.5435
  2.590  37.5435
  2.589  37.1109
  2.588  37.3066
  2.586  37.5950
  2.585  37.5023
  2.584  37.3169
  2.583  37.3787
  2.581  37.8525
  2.580  38.0894
  2.579  37.7186
  2.577  37.9555
  2.576  37.9143
  2.575  37.6774
  2.574  38.0276
  2.572  38.2439
  2.571  38.0379
  2.570  38.0276
  2.569  38.0173
  2.567  37.8525
  2.566  37.6671
  2.565  37.7289
  2.563  38.0482
  2.562  38.2645
  2.561  37.9967
  2.560  37.8216
  2.558  37.8628
  2.557  38.1615
  2.556  38.2336
  2.555  38.4499
  2.553  38.9134
  2.552  38.8104
  2.551  38.7486
  2.550  38.3469
  2.548  38.1718
  2.547  38.4602
  2.546  38.3469
  2.545  38.4190
  2.543  38.6456
  2.542  39.0473
  2.541  38.8516
  2.540  38.5426
  2.538  38.5941
  2.537  38.9031
  2.536  39.1297
  2.535  39.1091
  2.533  38.7795
  2.532  38.7898
  2.531  38.8825
  2.530  39.0679
  2.528  39.2121
  2.527  39.1606
  2.526  39.2018
  2.525  39.3048
  2.524  39.2739
  2.522  39.3975
  2.521  39.5005
  2.520  39.4490
  2.519  39.4284
  2.517  39.7374
  2.516  39.7065
  2.515  39.7580
  2.514  39.7683
  2.513  39.5726
  2.511  39.5726
  2.510  39.6550
  2.509  39.8610
  2.508  40.1082
  2.506  40.1288
  2.505  39.8816
  2.504  39.8301
  2.503  40.2936
  2.502  40.3451
  2.500  40.2215
  2.500  40.2215
  2.496  39.7465
  2.492  40.1845
  2.488  40.4020
  2.484  40.8480
  2.480  40.8902
  2.476  40.9504
  2.472  41.3263
  2.468  42.0180
  2.464  41.9249
  2.460  42.1303
  2.456  42.5075
  2.452  42.5933
  2.448  43.0373
  2.444  43.4676
  2.440  43.6399
  2.436  44.4975
  2.432  44.8630
  2.428  44.7764
  2.424  45.1396
  2.420  45.8080
  2.416  45.8573
  2.412  46.0279
  2.408  46.4730
  2.404  46.6645
  2.400  46.4281
  2.396  46.7581
  2.392  46.7770
  2.388  46.8712
  2.384  46.8910
  2.380  47.2779
  2.376  47.2803
  2.372  48.0964
  2.368  48.1356
  2.364  48.1393
  2.360  48.0623
  2.356  48.5326
  2.352  48.9917
  2.348  48.8810
  2.344  48.9171
  2.340  49.2135
  2.336  49.3247
  2.332  49.5106
  2.328  49.5922
  2.324  49.5619
  2.320  49.5483
  2.316  49.7220
  2.312  49.8296
  2.308  50.0838
  2.304  50.2883
  2.300  50.3473
  2.296  50.4684
  2.292  50.3888
  2.288  50.5628
  2.284  50.7176
  2.280  50.8542
  2.276  50.9888
  2.272  51.0549
  2.268  51.1993
  2.264  50.9938
  2.260  50.8896
  2.256  51.0303
  2.252  51.0767
  2.248  51.0223
  2.244  51.0031
  2.240  51.1506
  2.236  51.1573
  2.232  51.1257
  2.228  50.9283
  2.224  50.4680
  2.220  49.7011
  2.216  48.7308
  2.212  48.1766
  2.208  48.1736
  2.204  48.5839
  2.200  49.2065
  2.196  49.9223
  2.192  50.4413
  2.188  50.8586
  2.184  51.1205
  2.180  51.3699
  2.176  51.4488
  2.172  51.4591
  2.168  51.6042
  2.164  51.7928
  2.160  52.1279
  2.156  52.6374
  2.152  53.2066
  2.148  53.8995
  2.144  54.4436
  2.140  54.7768
  2.136  55.0344
  2.132  55.1809
  2.128  55.2215
  2.124  55.1211
  2.120  55.0362
  2.116  54.9531
  2.112  54.9326
  2.108  54.8857
  2.104  54.8626
  2.100  54.7677
  2.096  54.7498
  2.092  54.7806
  2.088  54.8885
  2.084  54.9122
  2.080  54.9285
  2.076  54.9683
  2.072  55.0187
  2.068  55.0471
  2.064  55.0361
  2.060  55.0302
  2.056  55.0251
  2.052  54.9505
  2.048  54.9156
  2.044  54.8827
  2.040  54.8014
  2.036  54.6993
  2.032  54.5925
  2.028  54.4878
  2.024  54.3675
  2.020  54.2135
  2.016  54.0455
  2.012  53.8853
  2.008  53.7397
  2.004  53.5726
  2.000  53.3829
  1.996  53.1700
  1.992  52.9549
  1.988  52.7523
  1.984  52.4931
  1.980  52.2858
  1.976  52.0886
  1.972  51.8205
  1.968  51.6106
  1.964  51.4356
  1.960  51.2050
  1.956  50.9811
  1.952  50.7824
  1.948  50.5543
  1.944  50.3273
  1.940  50.1050
  1.936  49.7402
  1.932  49.4212
  1.928  49.1317
  1.924  48.7791
  1.920  48.5659
  1.916  48.5572
  1.912  48.7397
  1.908  49.2641
  1.904  50.1048
  1.900  51.2182
  1.896  52.3704
  1.892  53.4101
  1.888  54.4338
  1.884  55.4375
  1.880  56.1957
  1.876  56.7369
  1.872  57.1771
  1.868  57.6167
  1.864  57.9711
  1.860  58.1788
  1.856  58.3429
  1.852  58.4667
  1.848  58.5184
  1.844  58.5002
  1.840  58.4908
  1.836  58.4724
  1.832  58.4643
  1.828  58.4627
  1.824  58.4042
  1.820  58.3845
  1.816  58.4183
  1.812  58.4187
  1.808  58.4113
  1.804  58.4419
  1.800  58.5056
  1.796  58.5511
  1.792  58.5869
  1.788  58.6798
  1.784  58.8109
  1.780  58.8684
  1.776  58.8790
  1.772  58.8362
  1.768  58.7737
  1.764  58.7718
  1.760  58.7960
  1.756  58.8306
  1.752  58.8890
  1.748  58.9619
  1.744  59.0412
  1.740  59.0847
  1.736  59.0861
  1.732  59.1170
  1.728  59.1668
  1.724  59.1769
  1.720  59.2375
  1.716  59.3056
  1.712  59.2717
  1.708  59.2593
  1.704  59.2972
  1.700  59.3157
  1.696  59.3466
  1.692  59.3964
  1.688  59.4308
  1.684  59.4280
  1.680  59.4361
  1.676  59.4340
  1.672  59.4007
  1.668  59.4352
  1.664  59.5032
  1.660  59.5048
  1.656  59.4948
  1.652  59.4716
  1.648  59.4992
  1.644  59.5104
  1.640  59.4989
  1.636  59.5069
  1.632  59.4837
  1.628  59.5276
  1.624  59.4594
  1.620  59.4711
  1.616  59.5257
  1.612  59.4467
  1.608  59.4466
  1.604  59.4956
  1.600  59.4943
  1.596  59.4339
  1.592  59.3866
  1.588  59.4082
  1.584  59.3391
  1.580  59.3301
  1.576  59.3657
  1.572  59.3471
  1.568  59.2360
  1.564  59.1919
  1.560  59.2253
  1.556  59.2211
  1.552  59.1535
  1.548  59.1098
  1.544  59.0001
  1.540  59.0310
  1.536  58.9381
  1.532  58.8315
  1.528  58.8751
  1.524  58.8414
  1.520  58.7643
  1.516  58.6799
  1.512  58.6211
  1.508  58.4816
  1.504  58.4589
  1.500  58.4171
  1.496  58.3204
  1.492  58.1584
  1.488  58.1595
  1.484  58.0674
  1.480  57.9818
  1.476  57.8396
  1.472  57.7330
  1.468  57.6482
  1.464  57.5062
  1.460  57.4638
  1.456  57.4641
  1.452  57.4633
  1.448  57.3593
  1.444  57.2607
  1.440  57.2028
  1.436  57.0259
  1.432  56.8602
  1.428  56.5528
  1.424  56.1537
  1.420  55.3647
  1.416  54.7769
  1.412  54.9803
  1.408  55.5185
  1.404  55.7476
  1.400  55.8289
  1.396  56.1038
  1.392  56.6068
  1.388  57.3032
  1.384  57.8328
  1.380  58.1649
  1.376  58.4504
  1.372  58.7196
  1.368  58.8417
  1.364  58.8082
  1.360  58.6242
  1.356  58.6788
  1.352  58.8011
  1.348  59.0315
  1.344  59.2259
  1.340  59.3735
  1.336  59.3936
  1.332  59.3287
  1.328  59.3656
  1.324  59.3107
  1.320  59.3255
  1.316  59.2756
  1.312  59.2034
  1.308  59.3049
  1.304  59.3160
  1.300  59.2973
  1.296  59.2406
  1.292  59.2205
  1.288  59.2058
  1.284  59.2789
  1.280  59.1892
  1.276  59.0842
  1.272  59.1334
  1.268  59.0849
  1.264  59.0003
  1.260  58.9870
  1.256  58.9725
  1.252  58.8821
  1.248  58.8258
  1.244  58.7522
  1.240  58.7606
  1.236  58.6347
  1.232  58.5678
  1.228  58.4854
  1.224  58.4821
  1.220  58.4144
  1.216  58.3952
  1.212  58.2771
  1.208  58.1640
  1.204  58.0615
  1.200  57.9675
  1.196  57.8605
  1.192  57.7832
  1.188  57.6734
  1.184  57.4952
  1.180  57.4371
  1.176  57.2834
  1.172  57.1440
  1.168  57.0291
  1.164  56.8962
  1.160  56.7141
  1.156  56.5658
  1.152  56.3641
  1.148  56.2744
  1.144  56.1298
  1.140  55.8938
  1.136  55.7199
  1.132  55.5446
  1.128  55.3545
  1.124  55.1294
  1.120  54.8668
  1.116  54.6774
  1.112  54.4626
  1.108  54.2521
  1.104  54.0037
  1.100  53.7611
  1.096  53.5261
  1.092  53.3404
  1.088  53.0274
  1.084  52.7201
  1.080  52.4719
  1.076  52.1968
  1.072  51.9501
  1.068  51.6669
  1.064  51.3160
  1.060  51.0036
  1.056  50.7673
  1.052  50.4782
  1.048  50.1190
  1.044  49.7603
  1.040  49.3935
  1.036  49.0342
  1.032  48.6500
  1.028  48.2462
  1.024  47.8643
  1.020  47.3841
  1.016  46.8949
  1.012  46.4245
  1.008  45.9450
  1.004  45.4389
  1.000  44.8620
  0.996  44.3872
  0.992  43.7963
  0.988  43.2022
  0.984  42.6477
  0.980  42.0715
  0.976  41.5605
  0.972  40.9757
  0.968  40.4039
  0.964  39.8526
  0.960  39.3297
  0.956  38.8421
  0.952  38.3582
  0.948  37.8653
  0.944  37.4206
  0.940  36.9733
  0.936  36.4844
  0.932  36.0660
  0.928  35.6333
  0.924  35.2781
  0.920  34.9707
  0.916  34.8357
  0.912  34.7063
  0.908  34.4928
  0.904  34.2188
  0.900  34.0010
  0.896  33.8150
  0.892  33.6334
  0.888  33.4061
  0.884  33.3048
  0.880  33.3935
  0.876  33.2109
  0.872  33.0579
  0.868  33.0365
  0.864  32.8116
  0.860  32.6214
  0.856  32.8118
  0.852  32.8473
  0.848  32.8165
  0.844  32.9901
  0.840  32.9714
  0.836  33.0846
  0.832  33.1937
  0.828  33.2390
  0.824  33.4254
  0.820  33.5881
  0.816  33.7460
  0.812  33.9543
  0.808  34.1818
  0.804  34.4896
  0.800  34.6850
  0.796  34.8607
  0.792  35.1493
  0.788  35.4029
  0.784  35.6788
  0.780  35.9256
  0.776  36.2332
  0.772  36.4435
  0.768  36.6730
  0.764  36.8690
  0.760  36.9940
  0.756  37.1556
  0.752  37.1728
  0.748  37.2565
  0.744  37.3133
  0.740  37.2326
  0.736  37.0847
  0.732  36.9074
  0.728  36.7290
  0.724  36.4794
  0.720  36.1486
  0.716  35.8264
  0.712  35.4625
  0.708  35.0405
  0.704  34.6655
  0.700  34.2008
  0.696  33.7651
  0.692  33.3417
  0.688  32.8999
  0.684  32.4687
  0.680  32.0521
  0.676  31.6195
  0.672  31.2628
  0.668  30.9282
  0.664  30.6029
  0.660  30.2712
  0.656  29.9770
  0.652  29.7020
  0.648  29.4112
  0.644  29.1526
  0.640  28.9094
  0.636  28.6444
  0.632  28.4065
  0.628  28.1437
  0.624  27.8367
  0.620  27.4842
  0.616  27.0744
  0.612  26.6293
  0.608  26.0948
  0.604  25.4607
  0.600  24.7743
  0.596  24.0153
  0.592  23.1307
  0.588  22.1927
  0.584  21.2163
  0.580  20.2272
  0.576  19.2713
  0.572  18.3361
  0.568  17.4661
  0.564  16.7037
  0.560  15.9899
  0.556  15.3872
  0.552  14.8786
  0.548  14.4369
  0.544  14.0736
  0.540  13.7731
  0.536  13.5375
  0.532  13.3242
  0.528  13.1574
  0.524  13.0351
  0.520  12.9263
  0.516  12.8357
  0.512  12.7503
  0.508  12.6740
  0.504  12.5955
  0.500  12.5091
  0.496  12.4082
  0.492  12.2948
  0.488  12.1928
  0.484  12.1096
  0.480  12.0624
  0.476  12.0300
  0.472  11.9727
  0.468  11.9170
  0.464  11.8480
  0.460  11.7603
  0.456  11.6603
  0.452  11.5366
  0.448  11.4078
  0.444  11.2930
  0.440  11.1872
  0.436  11.0779
  0.432  10.9817
  0.428  10.8786
  0.424  10.8045
  0.420  10.7460
  0.416  10.6889
  0.412  10.6412
  0.408  10.6039
  0.404  10.5522
  0.400  10.4972
  0.000   0.0000
  0.000   0.0000
  0.000   0.0000
  0.000   0.0000
  0.000   0.0000
  0.000   0.0000
  0.000   0.0000
  0.000   0.0000
  0.000   0.0000
  0.000   0.0000
  0.000   0.0000
  0.000   0.0000
  0.000   0.0000
  0.000   0.0000
  0.000   0.0000
  0.000   0.0000
  0.000   0.0000
  0.000   0.0000
  0.000   0.0000
  0.000   0.0000
  0.000   0.0000
  0.000   0.0000
  0.000   0.0000
  0.000   0.0000
  0.000   0.0000
  0.000   0.0000
  0.000   0.0000
  0.000   0.0000
  0.000   0.0000
  0.000   0.0000
  0.000   0.0000
  0.000   0.0000
  0.000   0.0000
  0.000   0.0000
  0.000   0.0000
  0.000   0.0000
  0.000   0.0000
  0.000   0.0000
  0.000   0.0000
  0.000   0.0000
  0.000   0.0000
  0.000   0.0000
  0.000   0.0000
  0.000   0.0000
  0.000   0.0000
  0.000   0.0000
  0.000   0.0000
  0.000   0.0000
  0.000   0.0000
  0.000   0.0000
  0.000   0.0000
  0.000   0.0000
  0.000   0.0000
  0.000   0.0000
  0.000   0.0000
  0.000   0.0000
  0.000   0.0000
  0.000   0.0000
  0.000   0.0000
  0.000   0.0000
  0.000   0.0000
  0.000   0.0000
  0.000   0.0000
  0.000   0.0000
  0.000   0.0000
  0.000   0.0000
  0.000   0.0000
  0.000   0.0000
  0.000   0.0000
  0.000   0.0000
  0.000   0.0000
  0.000   0.0000
  0.000   0.0000
  0.000   0.0000
  0.000   0.0000
  0.000   0.0000
  0.000   0.0000
  0.000   0.0000
  0.000   0.0000
  0.000   0.0000
  0.000   0.0000
  0.000   0.0000
  0.000   0.0000
  0.000   0.0000
  0.000   0.0000
  0.000   0.0000
  0.000   0.0000
  0.000   0.0000
  0.000   0.0000
  0.000   0.0000
  0.000   0.0000
  0.000   0.0000
  0.000   0.0000
  0.000   0.0000
  0.000   0.0000
  0.000   0.0000
  0.000   0.0000
  0.000   0.0000
  0.000   0.0000
  0.000   0.0000
  0.000   0.0000
  0.000   0.0000
  0.000   0.0000
  0.000   0.0000
  0.000   0.0000
  0.000   0.0000
  0.000   0.0000
  0.000   0.0000
  0.000   0.0000
  0.000   0.0000
  0.000   0.0000
  0.000   0.0000
  0.000   0.0000
  0.000   0.0000
  0.000   0.0000
  0.000   0.0000
  0.000   0.0000
  0.000   0.0000
  0.000   0.0000
  0.000   0.0000
  0.000   0.0000
  0.000   0.0000
  0.000   0.0000
  0.000   0.0000
  0.000   0.0000
  0.000   0.0000
  0.000   0.0000
  0.000   0.0000
  0.000   0.0000
  0.000   0.0000
  0.000   0.0000
  0.000   0.0000
  0.000   0.0000
  0.000   0.0000
  0.000   0.0000
  0.000   0.0000
  0.000   0.0000
  0.000   0.0000
  0.000   0.0000
  0.000   0.0000
  0.000   0.0000
  0.000   0.0000
  0.000   0.0000
  0.000   0.0000
  0.000   0.0000
  0.000   0.0000
  0.000   0.0000
  0.000   0.0000
  0.000   0.0000
  0.000   0.0000
  0.000   0.0000
  0.000   0.0000
  0.000   0.0000
  0.000   0.0000
  0.000   0.0000
  0.000   0.0000
  0.000   0.0000
  0.000   0.0000
  0.000   0.0000
  0.000   0.0000
  0.000   0.0000
  0.000   0.0000
  0.000   0.0000
  0.000   0.0000
  0.000   0.0000
  0.000   0.0000
  0.000   0.0000
  0.000   0.0000
  0.000   0.0000
  0.000   0.0000
  0.000   0.0000
  0.000   0.0000
  0.000   0.0000
  0.000   0.0000
  0.000   0.0000
  0.000   0.0000
  0.000   0.0000
  0.000   0.0000
  0.000   0.0000
  0.000   0.0000
  0.000   0.0000
  0.000   0.0000
  0.000   0.0000
  0.000   0.0000
  0.000   0.0000
  0.000   0.0000
  0.000   0.0000
  0.000   0.0000
  0.000   0.0000
  0.000   0.0000
  0.000   0.0000
  0.000   0.0000
  0.000   0.0000
  0.000   0.0000
  0.000   0.0000
  0.000   0.0000
  0.000   0.0000
  0.000   0.0000
  0.000   0.0000
  0.000   0.0000
  0.000   0.0000
  0.000   0.0000
  0.000   0.0000
  0.000   0.0000
  0.000   0.0000
  0.000   0.0000
  0.000   0.0000
  0.000   0.0000
  0.000   0.0000
  0.000   0.0000
  0.000   0.0000
  0.000   0.0000
  0.000   0.0000
  0.000   0.0000
  0.000   0.0000
  0.000   0.0000
  0.000   0.0000
  0.000   0.0000
  0.000   0.0000
  0.000   0.0000
  0.000   0.0000
  0.000   0.0000
  0.000   0.0000
  0.000   0.0000
  0.000   0.0000
  0.000   0.0000
  0.000   0.0000
  0.000   0.0000
  0.000   0.0000
  0.000   0.0000
  0.000   0.0000
  0.000   0.0000
  0.000   0.0000
  0.000   0.0000
  0.000   0.0000
  0.000   0.0000
  0.000   0.0000
  0.000   0.0000
  0.000   0.0000
  0.000   0.0000
  0.000   0.0000
  0.000   0.0000
  0.000   0.0000
  0.000   0.0000
  0.000   0.0000
  0.000   0.0000
  0.000   0.0000
  0.000   0.0000
  0.000   0.0000
  0.000   0.0000
  0.000   0.0000
  0.000   0.0000
  0.000   0.0000
  0.000   0.0000
  0.000   0.0000
  0.000   0.0000
  0.000   0.0000
  0.000   0.0000
  0.000   0.0000
  0.000   0.0000
  0.000   0.0000
  0.000   0.0000
  0.000   0.0000
  0.000   0.0000
  0.000   0.0000
  0.000   0.0000
  0.000   0.0000
  0.000   0.0000
  0.000   0.0000
  0.000   0.0000
  0.000   0.0000
  0.000   0.0000
  0.000   0.0000
  0.000   0.0000
  0.000   0.0000
  0.000   0.0000
  0.000   0.0000
  0.000   0.0000
  0.000   0.0000
  0.000   0.0000
  0.000   0.0000
  0.000   0.0000
  0.000   0.0000
  0.000   0.0000
  0.000   0.0000
  0.000   0.0000
  0.000   0.0000
  0.000   0.0000
  0.000   0.0000
  0.000   0.0000
  0.000   0.0000
  0.000   0.0000
  0.000   0.0000
  0.000   0.0000
  0.000   0.0000
  0.000   0.0000
  0.000   0.0000
  0.000   0.0000
  0.000   0.0000
  0.000   0.0000
  0.000   0.0000
  0.000   0.0000
  0.000   0.0000
  0.000   0.0000
  0.000   0.0000
  0.000   0.0000
  0.000   0.0000
  0.000   0.0000
  0.000   0.0000
  0.000   0.0000
  0.000   0.0000
  0.000   0.0000
  0.000   0.0000
  0.000   0.0000
  0.000   0.0000
  0.000   0.0000
  0.000   0.0000
  0.000   0.0000
  0.000   0.0000
  0.000   0.0000
  0.000   0.0000
  0.000   0.0000
  0.000   0.0000
  0.000   0.0000
  0.000   0.0000
  0.000   0.0000
  0.000   0.0000
  0.000   0.0000
  0.000   0.0000
  0.000   0.0000
  0.000   0.0000
  0.000   0.0000
  0.000   0.0000
  0.000   0.0000
  0.000   0.0000
  0.000   0.0000
  0.000   0.0000
  0.000   0.0000
  0.000   0.0000
  0.000   0.0000
  0.000   0.0000
  0.000   0.0000
  0.000   0.0000
  0.000   0.0000
  0.000   0.0000
  0.000   0.0000
  0.000   0.0000
  0.000   0.0000
  0.000   0.0000
  0.000   0.0000
  0.000   0.0000
  0.000   0.0000
  0.000   0.0000
  0.000   0.0000
  0.000   0.0000
  0.000   0.0000
  0.000   0.0000
  0.000   0.0000
  0.000   0.0000
  0.000   0.0000
  0.000   0.0000
  0.000   0.0000
  0.000   0.0000
  0.000   0.0000
  0.000   0.0000
  0.000   0.0000
  0.000   0.0000
  0.000   0.0000
  0.000   0.0000
  0.000   0.0000
  0.000   0.0000
  0.000   0.0000
  0.000   0.0000
  0.000   0.0000
  0.000   0.0000
  0.000   0.0000
  0.000   0.0000
  0.000   0.0000
  0.000   0.0000
  0.000   0.0000
  0.000   0.0000
  0.000   0.0000
  0.000   0.0000
  0.000   0.0000
  0.000   0.0000
  0.000   0.0000
  0.000   0.0000
  0.000   0.0000
  0.000   0.0000
  0.000   0.0000
  0.000   0.0000
  0.000   0.0000
  0.000   0.0000
  0.000   0.0000
  0.000   0.0000
  0.000   0.0000
  0.000   0.0000
  0.000   0.0000
  0.000   0.0000
  0.000   0.0000
  0.000   0.0000
  0.000   0.0000
  0.000   0.0000
  0.000   0.0000
  0.000   0.0000
  0.000   0.0000
  0.000   0.0000
  0.000   0.0000
  0.000   0.0000
  0.000   0.0000
  0.000   0.0000
  0.000   0.0000
  0.000   0.0000
  0.000   0.0000
  0.000   0.0000
  0.000   0.0000
  0.000   0.0000
  0.000   0.0000
  0.000   0.0000
  0.000   0.0000
  0.000   0.0000
  0.000   0.0000
  0.000   0.0000
  0.000   0.0000
  0.000   0.0000
  0.000   0.0000
  0.000   0.0000
  0.000   0.0000
  0.000   0.0000
  0.000   0.0000
  0.000   0.0000
  0.000   0.0000
  0.000   0.0000
  0.000   0.0000
  0.000   0.0000
  0.000   0.0000
  0.000   0.0000
  0.000   0.0000
  0.000   0.0000
  0.000   0.0000
  0.000   0.0000
  0.000   0.0000
  0.000   0.0000
  0.000   0.0000
  0.000   0.0000
  0.000   0.0000
  0.000   0.0000
  0.000   0.0000
  0.000   0.0000
  0.000   0.0000
  0.000   0.0000
  0.000   0.0000
  0.000   0.0000
  0.000   0.0000
  0.000   0.0000
  0.000   0.0000
  0.000   0.0000
  0.000   0.0000
  0.000   0.0000
  0.000   0.0000
  0.000   0.0000
  0.000   0.0000
  0.000   0.0000
  0.000   0.0000
  0.000   0.0000
  0.000   0.0000
  0.000   0.0000
  0.000   0.0000
  0.000   0.0000
  0.000   0.0000
  0.000   0.0000
  0.000   0.0000
  0.000   0.0000
  0.000   0.0000
  0.000   0.0000
  0.000   0.0000
  0.000   0.0000
  0.000   0.0000
  0.000   0.0000
  0.000   0.0000
  0.000   0.0000
  0.000   0.0000
  0.000   0.0000
  0.000   0.0000
  0.000   0.0000
  0.000   0.0000
  0.000   0.0000
  0.000   0.0000
  0.000   0.0000
  0.000   0.0000
  0.000   0.0000
  0.000   0.0000
  0.000   0.0000
  0.000   0.0000
  0.000   0.0000
  0.000   0.0000
  0.000   0.0000
  0.000   0.0000
  0.000   0.0000
  0.000   0.0000
  0.000   0.0000
  0.000   0.0000
  0.000   0.0000
  0.000   0.0000
  0.000   0.0000
  0.000   0.0000
  0.000   0.0000
  0.000   0.0000
  0.000   0.0000
  0.000   0.0000
  0.000   0.0000
  0.000   0.0000
  0.000   0.0000
  0.000   0.0000
  0.000   0.0000
  0.000   0.0000
  0.000   0.0000
  0.000   0.0000
  0.000   0.0000
  0.000   0.0000
  0.000   0.0000
  0.000   0.0000
  0.000   0.0000
  0.000   0.0000
  0.000   0.0000
