Name: Altered volcanic tuff
Type: Rock
Class: Igneous
Subclass: Felsic
Particle Size: Whole rock chips
Sample No.: cup3
Owner: USGS
Wavelength range: 0.40 - 14.05 um
Origin: Cuprite, Nevada

Description: Altered volcanic tuff, white





Measurement: Directional Hemispherical Reflectance
First Column: X
Second Column: Y
X Units: Wavelength (micrometers)
Y Units: Reflectance (percent)
First X Value: 14.05105
Last X Value: 0.40000
Number of X Values: 2756
Additional Information: None

 14.051   3.1106
 14.013   3.1621
 13.975   3.4505
 13.938   3.3784
 13.900   3.4299
 13.863   3.4814
 13.826   3.5844
 13.790   3.5432
 13.753   3.6462
 13.717   3.5638
 13.680   3.6050
 13.644   3.6256
 13.609   3.7801
 13.573   3.8007
 13.538   3.8522
 13.502   3.7904
 13.467   3.8625
 13.432   3.9140
 13.398   3.9243
 13.363   3.9552
 13.329   4.2024
 13.295   4.2024
 13.261   4.1921
 13.227   4.2436
 13.193   4.3466
 13.160   4.4084
 13.126   4.4290
 13.093   4.4084
 13.060   4.5526
 13.027   4.6968
 12.995   4.8616
 12.962   4.8410
 12.930   5.0264
 12.898   5.2221
 12.866   5.3560
 12.834   5.5105
 12.802   5.5620
 12.771   5.4384
 12.739   5.4693
 12.708   5.3869
 12.677   5.2839
 12.646   5.0985
 12.616   4.9440
 12.585   4.8204
 12.554   4.7174
 12.524   4.4908
 12.494   4.3363
 12.464   4.0067
 12.434   3.6359
 12.404   3.2651
 12.375   3.0488
 12.345   2.6986
 12.316   2.4514
 12.287   2.3793
 12.258   2.4617
 12.229   2.5544
 12.200   2.7501
 12.171   2.8634
 12.143   3.0076
 12.115   3.0591
 12.086   3.1415
 12.058   3.1518
 12.030   3.2754
 12.002   3.3166
 11.975   3.4196
 11.947   3.4402
 11.920   3.4711
 11.892   3.5432
 11.865   3.6977
 11.838   3.7492
 11.811   3.8831
 11.784   3.9964
 11.757   4.0891
 11.731   4.0788
 11.704   4.1097
 11.678   4.2024
 11.652   4.2951
 11.626   4.2848
 11.600   4.3569
 11.574   4.4393
 11.548   4.5629
 11.522   4.5835
 11.497   4.7071
 11.471   4.7792
 11.446   4.8822
 11.421   4.9028
 11.396   4.9440
 11.371   4.9440
 11.346   4.9440
 11.321   4.9337
 11.297   5.0676
 11.272   5.1912
 11.248   5.3045
 11.223   5.3148
 11.199   5.3766
 11.175   5.3972
 11.151   5.5208
 11.127   5.5929
 11.103   5.6135
 11.079   5.5723
 11.056   5.5826
 11.032   5.6444
 11.009   5.7680
 10.985   5.8401
 10.962   5.9122
 10.939   5.8710
 10.916   5.9122
 10.893   5.8916
 10.870   5.9225
 10.848   5.9740
 10.825   6.0976
 10.802   6.0976
 10.780   6.1182
 10.758   6.1388
 10.735   6.2212
 10.713   6.2315
 10.691   6.3345
 10.669   6.3757
 10.647   6.4478
 10.625   6.4478
 10.604   6.5714
 10.582   6.6126
 10.560   6.6744
 10.539   6.7362
 10.518   6.8186
 10.496   6.9525
 10.475   7.1482
 10.454   7.1585
 10.433   7.1997
 10.412   7.3130
 10.391   7.4469
 10.370   7.4881
 10.350   7.6220
 10.329   7.7559
 10.309   7.9207
 10.288   8.0855
 10.268   8.3018
 10.247   8.4563
 10.227   8.6314
 10.207   8.7550
 10.187   8.9816
 10.167   9.0846
 10.147   9.3318
 10.127   9.5790
 10.108   9.7747
 10.088   9.9189
 10.068  10.0940
 10.049  10.2382
 10.029  10.5266
 10.010  10.7944
  9.991  10.9592
  9.972  11.1137
  9.952  11.4227
  9.933  11.6905
  9.914  11.8965
  9.895  11.9583
  9.877  12.1437
  9.858  12.3497
  9.839  12.6690
  9.821  12.8647
  9.802  13.1016
  9.783  13.3179
  9.765  13.5033
  9.747  13.6887
  9.728  13.9565
  9.710  14.1625
  9.692  14.3685
  9.674  14.5230
  9.656  14.7599
  9.638  14.9659
  9.620  15.2646
  9.602  15.4912
  9.585  15.7075
  9.567  15.8105
  9.549  16.1195
  9.532  16.4182
  9.514  16.6551
  9.497  16.9023
  9.479  17.2628
  9.462  17.7160
  9.445  18.2619
  9.428  18.6430
  9.411  19.0859
  9.394  19.6936
  9.377  20.4352
  9.360  21.0944
  9.343  21.8669
  9.326  22.6703
  9.309  23.4016
  9.293  23.9681
  9.276  24.6582
  9.259  25.5131
  9.243  26.2547
  9.226  26.8830
  9.210  27.5731
  9.194  28.0984
  9.178  28.5001
  9.161  28.8606
  9.145  29.2623
  9.129  29.5404
  9.113  29.8082
  9.097  30.1172
  9.081  30.4468
  9.065  30.5704
  9.049  30.6528
  9.034  30.6116
  9.018  30.5395
  9.002  30.4777
  8.987  30.3747
  8.971  30.0657
  8.956  29.7464
  8.940  29.4065
  8.925  29.0357
  8.909  28.6237
  8.894  28.2941
  8.879  27.8615
  8.864  27.3465
  8.849  26.8212
  8.834  26.4401
  8.819  25.9869
  8.804  25.4925
  8.789  25.0084
  8.774  24.5861
  8.759  24.1638
  8.744  23.7827
  8.730  23.3398
  8.715  22.8557
  8.700  22.4334
  8.686  22.1038
  8.671  21.6815
  8.657  21.2798
  8.642  20.8987
  8.628  20.5279
  8.614  20.3322
  8.599  20.3219
  8.585  20.2704
  8.571  20.3116
  8.557  20.2292
  8.543  20.0232
  8.529  19.8687
  8.515  19.7348
  8.501  19.3537
  8.487  18.9520
  8.473  18.6327
  8.459  18.3134
  8.445  17.8602
  8.431  17.3761
  8.418  16.8302
  8.404  16.2534
  8.391  15.7487
  8.377  15.4706
  8.363  15.5015
  8.350  15.7281
  8.337  15.9959
  8.323  16.1916
  8.310  16.2019
  8.297  16.2019
  8.283  16.1813
  8.270  16.1298
  8.257  16.0371
  8.244  15.8414
  8.231  15.6560
  8.218  15.5942
  8.205  15.4500
  8.192  15.2337
  8.179  14.9659
  8.166  14.6363
  8.153  14.2346
  8.140  13.8226
  8.128  13.4106
  8.115  13.0810
  8.102  12.6793
  8.090  12.2467
  8.077  11.7935
  8.064  11.4639
  8.052  11.1034
  8.039  10.8150
  8.027  10.5060
  8.015  10.1867
  8.002   9.9292
  7.990   9.7129
  7.978   9.4245
  7.965   9.1567
  7.953   8.8374
  7.941   8.5387
  7.929   8.1885
  7.917   7.7868
  7.905   7.3542
  7.893   6.9422
  7.881   6.4684
  7.869   6.0255
  7.857   5.5517
  7.845   5.1294
  7.833   4.7895
  7.821   4.4496
  7.809   4.0891
  7.798   3.8419
  7.786   3.6050
  7.774   3.3063
  7.763   3.0076
  7.751   2.7707
  7.739   2.5647
  7.728   2.4205
  7.716   2.2351
  7.705   2.0806
  7.694   1.9364
  7.682   1.8952
  7.671   1.7922
  7.659   1.6995
  7.648   1.6480
  7.637   1.6068
  7.626   1.4317
  7.614   1.3287
  7.603   1.2875
  7.592   1.2875
  7.581   1.1845
  7.570   1.1021
  7.559   1.0403
  7.548   1.0300
  7.537   0.9682
  7.526   0.9682
  7.515   1.0094
  7.504   1.0094
  7.493   0.9476
  7.483   0.9373
  7.472   0.9064
  7.461   0.8549
  7.450   0.7828
  7.440   0.8240
  7.429   0.8137
  7.418   0.8755
  7.408   0.9270
  7.397   0.9270
  7.387   0.8755
  7.376   0.8755
  7.366   0.8755
  7.355   0.9167
  7.345   0.8755
  7.334   0.8446
  7.324   0.8137
  7.314   0.8240
  7.303   0.8034
  7.293   0.8343
  7.283   0.8755
  7.273   0.8961
  7.263   0.8652
  7.252   0.8858
  7.242   0.8652
  7.232   0.8961
  7.222   0.9064
  7.212   0.8652
  7.202   0.8961
  7.192   0.9888
  7.182   0.9064
  7.172   0.8858
  7.162   0.9167
  7.152   0.9888
  7.143   0.9682
  7.133   0.9579
  7.123   0.8961
  7.113   0.9167
  7.103   0.8961
  7.094   0.9270
  7.084   0.9373
  7.074   0.9888
  7.065   1.0094
  7.055   0.9785
  7.046   0.9476
  7.036   0.9682
  7.026   1.0094
  7.017   1.0300
  7.007   0.9682
  6.998   0.9476
  6.989   0.9682
  6.979   0.9785
  6.970   0.9167
  6.960   0.9785
  6.951   1.0403
  6.942   1.0815
  6.932   1.0609
  6.923   1.0918
  6.914   1.1124
  6.905   1.1021
  6.896   1.0300
  6.886   0.9888
  6.877   1.0197
  6.868   1.0815
  6.859   1.1330
  6.850   1.1227
  6.841   1.0815
  6.832   1.1433
  6.823   1.2051
  6.814   1.2051
  6.805   1.1742
  6.796   1.1639
  6.787   1.1536
  6.778   1.2257
  6.770   1.2154
  6.761   1.2257
  6.752   1.2360
  6.743   1.3081
  6.734   1.3596
  6.726   1.3802
  6.717   1.3390
  6.708   1.3390
  6.700   1.3493
  6.691   1.4523
  6.682   1.4317
  6.674   1.4317
  6.665   1.4420
  6.657   1.4420
  6.648   1.4523
  6.640   1.5141
  6.631   1.5450
  6.623   1.5450
  6.614   1.5038
  6.606   1.5038
  6.597   1.5553
  6.589   1.5862
  6.581   1.5553
  6.572   1.5862
  6.564   1.6892
  6.556   1.6686
  6.547   1.6274
  6.539   1.6686
  6.531   1.6789
  6.523   1.7613
  6.514   1.8128
  6.506   1.7098
  6.498   1.6892
  6.490   1.8437
  6.482   1.8849
  6.474   1.8643
  6.466   1.8643
  6.458   1.9364
  6.450   1.9879
  6.442   1.9673
  6.434   1.9055
  6.426   1.8952
  6.418   1.9467
  6.410   2.0291
  6.402   2.0291
  6.394   2.0085
  6.386   2.0085
  6.378   1.9982
  6.370   1.9364
  6.363   1.9673
  6.355   2.0085
  6.347   2.0291
  6.339   1.9673
  6.332   1.9158
  6.324   1.9055
  6.316   1.8849
  6.308   1.8128
  6.301   1.8025
  6.293   1.8540
  6.286   1.8334
  6.278   1.7510
  6.270   1.7613
  6.263   1.7819
  6.255   1.8025
  6.248   1.8231
  6.240   1.7819
  6.233   1.7510
  6.225   1.7510
  6.218   1.6995
  6.210   1.6892
  6.203   1.6892
  6.195   1.6995
  6.188   1.6892
  6.181   1.6892
  6.173   1.6480
  6.166   1.6171
  6.159   1.5759
  6.151   1.5759
  6.144   1.5656
  6.137   1.6068
  6.130   1.6583
  6.122   1.6892
  6.115   1.6583
  6.108   1.6377
  6.101   1.5862
  6.094   1.5965
  6.086   1.5862
  6.079   1.6068
  6.072   1.6583
  6.065   1.6892
  6.058   1.6583
  6.051   1.7098
  6.044   1.7201
  6.037   1.6480
  6.030   1.6686
  6.023   1.7201
  6.016   1.7201
  6.009   1.7510
  6.002   1.7613
  5.995   1.7819
  5.988   1.8231
  5.981   1.8643
  5.974   1.8643
  5.967   1.8952
  5.960   1.9055
  5.954   1.9158
  5.947   1.9261
  5.940   1.9879
  5.933   2.1115
  5.926   2.1424
  5.920   2.1012
  5.913   2.1012
  5.906   2.1218
  5.899   2.1527
  5.893   2.1939
  5.886   2.2454
  5.879   2.3484
  5.873   2.4205
  5.866   2.3896
  5.859   2.4102
  5.853   2.4205
  5.846   2.3793
  5.840   2.3381
  5.833   2.3587
  5.827   2.3793
  5.820   2.4102
  5.813   2.3793
  5.807   2.3690
  5.800   2.4102
  5.794   2.4205
  5.788   2.3793
  5.781   2.3175
  5.775   2.2969
  5.768   2.3381
  5.762   2.3793
  5.755   2.3690
  5.749   2.3381
  5.743   2.3793
  5.736   2.4411
  5.730   2.4308
  5.724   2.3896
  5.717   2.4308
  5.711   2.4617
  5.705   2.4926
  5.698   2.4720
  5.692   2.5441
  5.686   2.5647
  5.680   2.5132
  5.674   2.5544
  5.667   2.6162
  5.661   2.5750
  5.655   2.5750
  5.649   2.5750
  5.643   2.5544
  5.637   2.5956
  5.630   2.6059
  5.624   2.6059
  5.618   2.6162
  5.612   2.6059
  5.606   2.6471
  5.600   2.6677
  5.594   2.6265
  5.588   2.5853
  5.582   2.6162
  5.576   2.6471
  5.570   2.6677
  5.564   2.6677
  5.558   2.6265
  5.552   2.5853
  5.546   2.6162
  5.540   2.6986
  5.534   2.7604
  5.528   2.8016
  5.523   2.8428
  5.517   2.8222
  5.511   2.8222
  5.505   2.8222
  5.499   2.8634
  5.493   2.8428
  5.487   2.7810
  5.482   2.8222
  5.476   2.9046
  5.470   2.8943
  5.464   2.8531
  5.459   2.8737
  5.453   2.9149
  5.447   2.9458
  5.441   2.9355
  5.436   2.9149
  5.430   2.9149
  5.424   2.8840
  5.419   2.8737
  5.413   2.8634
  5.407   2.8119
  5.402   2.7501
  5.396   2.7192
  5.390   2.6677
  5.385   2.6471
  5.379   2.6059
  5.374   2.5544
  5.368   2.5132
  5.363   2.5338
  5.357   2.5029
  5.352   2.5132
  5.346   2.5029
  5.341   2.4617
  5.335   2.3999
  5.330   2.4308
  5.324   2.5029
  5.319   2.5029
  5.313   2.4720
  5.308   2.4514
  5.302   2.4514
  5.297   2.5235
  5.291   2.5338
  5.286   2.5029
  5.281   2.5338
  5.275   2.5647
  5.270   2.5956
  5.265   2.6059
  5.259   2.6059
  5.254   2.6574
  5.249   2.6780
  5.243   2.7192
  5.238   2.7810
  5.233   2.8016
  5.227   2.8222
  5.222   2.8840
  5.217   2.9149
  5.212   2.9767
  5.206   3.0282
  5.201   3.0900
  5.196   3.1518
  5.191   3.2136
  5.186   3.2548
  5.180   3.2548
  5.175   3.2651
  5.170   3.3372
  5.165   3.4093
  5.160   3.3990
  5.155   3.3475
  5.150   3.3681
  5.145   3.4402
  5.139   3.3887
  5.134   3.3784
  5.129   3.3681
  5.124   3.3887
  5.119   3.3784
  5.114   3.3990
  5.109   3.4299
  5.104   3.4299
  5.099   3.3990
  5.094   3.3784
  5.089   3.4196
  5.084   3.4093
  5.079   3.3784
  5.074   3.3578
  5.069   3.3372
  5.064   3.3063
  5.059   3.2445
  5.054   3.2136
  5.049   3.2445
  5.044   3.2239
  5.040   3.2033
  5.035   3.2548
  5.030   3.2754
  5.025   3.2548
  5.020   3.2651
  5.015   3.2342
  5.010   3.2033
  5.005   3.1930
  5.001   3.2033
  4.996   3.2548
  4.991   3.2857
  4.986   3.2651
  4.981   3.2239
  4.977   3.2548
  4.972   3.3063
  4.967   3.2960
  4.962   3.2651
  4.958   3.3166
  4.953   3.3475
  4.948   3.3372
  4.943   3.3784
  4.939   3.4505
  4.934   3.5020
  4.929   3.5432
  4.925   3.5947
  4.920   3.6668
  4.915   3.6977
  4.911   3.7389
  4.906   3.8316
  4.901   3.9243
  4.897   4.0067
  4.892   4.0994
  4.888   4.1921
  4.883   4.2951
  4.878   4.3569
  4.874   4.4805
  4.869   4.6659
  4.865   4.7895
  4.860   4.8204
  4.856   4.8822
  4.851   4.9955
  4.846   5.1191
  4.842   5.1912
  4.837   5.2427
  4.833   5.3354
  4.828   5.4796
  4.824   5.5929
  4.819   5.6547
  4.815   5.7474
  4.810   5.8401
  4.806   5.9328
  4.802   5.9946
  4.797   6.0461
  4.793   6.0667
  4.788   6.1285
  4.784   6.1903
  4.779   6.2109
  4.775   6.2521
  4.771   6.3139
  4.766   6.3860
  4.762   6.3963
  4.758   6.3860
  4.753   6.4581
  4.749   6.5096
  4.744   6.5199
  4.740   6.5508
  4.736   6.5817
  4.731   6.5714
  4.727   6.6023
  4.723   6.6023
  4.719   6.6332
  4.714   6.7465
  4.710   6.7774
  4.706   6.7465
  4.701   6.7362
  4.697   6.6847
  4.693   6.7362
  4.689   6.7671
  4.684   6.7156
  4.680   6.6950
  4.676   6.6847
  4.672   6.7156
  4.668   6.7465
  4.663   6.7980
  4.659   6.8083
  4.655   6.8392
  4.651   6.8804
  4.647   6.8598
  4.643   6.8907
  4.638   6.9834
  4.634   6.9422
  4.630   6.9525
  4.626   7.0452
  4.622   7.0658
  4.618   7.0761
  4.614   7.1070
  4.610   7.0967
  4.605   7.1070
  4.601   7.1482
  4.597   7.2100
  4.593   7.2718
  4.589   7.3439
  4.585   7.3542
  4.581   7.3027
  4.577   7.2924
  4.573   7.3233
  4.569   7.3851
  4.565   7.3954
  4.561   7.3851
  4.557   7.4160
  4.553   7.4263
  4.549   7.4160
  4.545   7.4778
  4.541   7.5293
  4.537   7.5602
  4.533   7.4984
  4.529   7.4263
  4.525   7.4572
  4.521   7.4881
  4.517   7.5087
  4.513   7.4778
  4.509   7.4263
  4.505   7.4057
  4.502   7.4160
  4.498   7.4263
  4.494   7.4469
  4.490   7.4881
  4.486   7.4366
  4.482   7.3336
  4.478   7.2821
  4.474   7.2615
  4.470   7.3336
  4.467   7.3748
  4.463   7.3748
  4.459   7.3336
  4.455   7.3233
  4.451   7.3439
  4.447   7.3954
  4.444   7.4366
  4.440   7.3851
  4.436   7.2615
  4.432   7.2512
  4.428   7.2821
  4.425   7.3336
  4.421   7.2924
  4.417   7.2306
  4.413   7.1791
  4.410   7.1688
  4.406   7.1688
  4.402   7.2409
  4.398   7.2821
  4.395   7.2615
  4.391   7.2924
  4.387   7.2924
  4.384   7.2924
  4.380   7.3233
  4.376   7.3748
  4.372   7.4675
  4.369   7.5087
  4.365   7.5602
  4.361   7.6220
  4.358   7.5911
  4.354   7.6014
  4.350   7.6735
  4.347   7.6632
  4.343   7.7044
  4.340   7.7559
  4.336   7.8280
  4.332   7.8589
  4.329   7.9825
  4.325   8.0443
  4.321   8.0443
  4.318   7.9825
  4.314   7.9928
  4.311   8.0546
  4.307   8.1885
  4.304   8.3018
  4.300   8.3018
  4.296   8.3842
  4.293   8.4769
  4.289   8.4666
  4.286   8.4769
  4.282   8.5490
  4.279   8.6108
  4.275   8.6108
  4.272   8.5696
  4.268   8.6005
  4.265   8.6211
  4.261   8.6108
  4.258   8.6726
  4.254   8.7756
  4.251   8.8374
  4.247   8.8374
  4.244   8.8786
  4.240   8.9713
  4.237   9.0846
  4.233   9.1567
  4.230   9.1876
  4.226   9.1464
  4.223   9.1258
  4.219   9.1361
  4.216   9.1670
  4.213   9.1773
  4.209   9.1876
  4.206   9.2185
  4.202   9.2391
  4.199   9.2906
  4.196   9.2288
  4.192   9.1773
  4.189   9.2906
  4.185   9.3318
  4.182   9.2700
  4.179   9.2597
  4.175   9.3318
  4.172   9.4451
  4.169   9.4657
  4.165   9.4863
  4.162   9.5687
  4.159   9.5172
  4.155   9.3730
  4.152   9.3421
  4.149   9.4039
  4.145   9.4966
  4.142   9.5378
  4.139   9.5378
  4.135   9.4554
  4.132   9.5275
  4.129   9.6614
  4.126   9.5893
  4.122   9.5481
  4.119   9.5481
  4.116   9.5378
  4.112   9.5687
  4.109   9.6202
  4.106   9.6099
  4.103   9.6202
  4.099   9.7026
  4.096   9.7850
  4.093   9.7644
  4.090   9.7850
  4.086   9.7850
  4.083   9.7747
  4.080   9.8262
  4.077   9.7953
  4.074   9.7541
  4.070   9.7953
  4.067   9.8674
  4.064   9.8880
  4.061   9.8880
  4.058   9.9292
  4.055  10.0013
  4.051  10.0219
  4.048   9.9601
  4.045   9.9498
  4.042  10.0322
  4.039  10.0322
  4.036   9.9807
  4.032   9.9292
  4.029   9.9086
  4.026   9.9910
  4.023   9.9292
  4.020   9.8674
  4.017   9.9395
  4.014   9.9395
  4.011   9.8777
  4.008   9.8983
  4.004   9.8262
  4.001   9.7232
  3.998   9.7129
  3.995   9.7026
  3.992   9.6202
  3.989   9.6202
  3.986   9.6511
  3.983   9.6305
  3.980   9.5584
  3.977   9.5790
  3.974   9.7232
  3.971   9.7541
  3.968   9.7129
  3.965   9.7438
  3.962   9.7644
  3.959   9.8056
  3.956   9.7747
  3.953   9.7232
  3.950   9.8056
  3.947   9.9395
  3.944   9.9395
  3.941   9.9395
  3.938  10.0013
  3.935  10.0528
  3.932  10.0425
  3.929   9.9704
  3.926   9.9292
  3.923  10.0116
  3.920  10.0219
  3.917   9.9601
  3.914   9.9395
  3.911   9.9601
  3.908   9.9498
  3.905   9.9704
  3.902   9.9704
  3.899  10.0425
  3.896  10.0528
  3.893  10.0219
  3.890   9.9601
  3.887   9.9807
  3.884   9.9601
  3.882   9.9704
  3.879  10.0425
  3.876  10.1146
  3.873  10.0734
  3.870  10.0940
  3.867  10.1352
  3.864  10.1249
  3.861  10.0013
  3.858   9.9292
  3.856   9.8880
  3.853   9.9498
  3.850  10.0322
  3.847  10.0528
  3.844  10.0631
  3.841  10.0528
  3.838  10.0219
  3.836  10.0631
  3.833  10.1455
  3.830  10.0837
  3.827  10.0219
  3.824  10.0940
  3.822  10.1661
  3.819  10.0631
  3.816   9.9292
  3.813  10.0116
  3.810  10.0116
  3.807   9.9807
  3.805  10.0219
  3.802  10.0734
  3.799  10.1043
  3.796  10.1970
  3.794  10.1249
  3.791  10.0940
  3.788  10.0116
  3.785   9.9395
  3.782   9.9086
  3.780   9.9086
  3.777   9.8983
  3.774   9.9086
  3.771   9.9189
  3.769   9.9189
  3.766   9.9395
  3.763   9.9292
  3.761   9.9292
  3.758   9.8365
  3.755   9.7644
  3.752   9.7541
  3.750   9.7335
  3.747   9.7026
  3.744   9.7438
  3.742   9.8159
  3.739   9.7541
  3.736   9.6717
  3.733   9.5584
  3.731   9.5584
  3.728   9.6099
  3.725   9.5996
  3.723   9.6099
  3.720   9.5481
  3.717   9.4451
  3.715   9.4554
  3.712   9.4245
  3.709   9.4039
  3.707   9.3524
  3.704   9.3627
  3.702   9.4451
  3.699   9.4245
  3.696   9.2906
  3.694   9.3009
  3.691   9.3215
  3.688   9.2494
  3.686   9.2597
  3.683   9.2906
  3.680   9.2494
  3.678   9.2288
  3.675   9.2185
  3.673   9.2082
  3.670   9.1464
  3.667   9.1258
  3.665   9.1052
  3.662   9.1567
  3.660   9.1155
  3.657   9.0125
  3.655   8.9095
  3.652   8.7962
  3.649   8.8271
  3.647   9.0022
  3.644   8.9610
  3.642   8.7962
  3.639   8.7138
  3.637   8.6829
  3.634   8.6623
  3.632   8.7447
  3.629   8.7653
  3.626   8.7344
  3.624   8.5696
  3.621   8.5284
  3.619   8.4872
  3.616   8.4769
  3.614   8.4460
  3.611   8.4254
  3.609   8.3739
  3.606   8.3533
  3.604   8.3327
  3.601   8.3224
  3.599   8.3327
  3.596   8.2812
  3.594   8.2400
  3.591   8.2194
  3.589   8.1576
  3.586   8.1164
  3.584   8.1267
  3.581   8.0752
  3.579   8.0031
  3.576   8.0134
  3.574   7.9722
  3.571   7.9516
  3.569   7.9619
  3.567   7.8898
  3.564   7.7868
  3.562   7.7971
  3.559   7.8383
  3.557   7.7971
  3.554   7.7250
  3.552   7.7250
  3.549   7.7456
  3.547   7.6632
  3.545   7.5190
  3.542   7.5293
  3.540   7.6014
  3.537   7.5808
  3.535   7.4778
  3.533   7.5190
  3.530   7.5087
  3.528   7.4263
  3.525   7.3027
  3.523   7.1894
  3.521   7.1791
  3.518   7.2306
  3.516   7.1585
  3.513   7.1173
  3.511   7.0349
  3.509   6.9525
  3.506   6.8598
  3.504   6.8392
  3.502   6.8598
  3.499   6.8701
  3.497   6.8598
  3.494   6.8392
  3.492   6.8495
  3.490   6.7568
  3.487   6.7362
  3.485   6.8495
  3.483   6.8289
  3.480   6.8186
  3.478   6.6744
  3.476   6.6126
  3.473   6.5405
  3.471   6.5096
  3.469   6.4993
  3.466   6.5199
  3.464   6.4890
  3.462   6.4787
  3.460   6.4169
  3.457   6.4478
  3.455   6.4787
  3.453   6.3757
  3.450   6.2830
  3.448   6.2830
  3.446   6.3345
  3.443   6.3860
  3.441   6.2315
  3.439   6.1594
  3.437   6.1800
  3.434   6.0770
  3.432   5.9946
  3.430   5.9740
  3.428   5.8092
  3.425   5.8092
  3.423   5.9019
  3.421   5.9122
  3.418   5.8710
  3.416   5.8092
  3.414   5.7989
  3.412   5.8504
  3.409   5.7680
  3.407   5.7062
  3.405   5.8504
  3.403   6.0255
  3.401   5.9534
  3.398   5.7886
  3.396   5.7062
  3.394   5.6959
  3.392   5.7165
  3.389   5.6959
  3.387   5.6238
  3.385   5.6135
  3.383   5.6238
  3.381   5.6238
  3.378   5.6032
  3.376   5.6753
  3.374   5.6753
  3.372   5.6547
  3.370   5.6135
  3.367   5.6238
  3.365   5.6753
  3.363   5.6238
  3.361   5.5208
  3.359   5.5311
  3.357   5.6444
  3.354   5.6341
  3.352   5.5105
  3.350   5.4178
  3.348   5.3663
  3.346   5.3869
  3.344   5.4487
  3.341   5.5620
  3.339   5.5826
  3.337   5.5929
  3.335   5.5723
  3.333   5.5208
  3.331   5.3663
  3.329   5.2839
  3.326   5.2427
  3.324   5.2633
  3.322   5.3869
  3.320   5.3972
  3.318   5.3045
  3.316   5.2839
  3.314   5.2427
  3.312   5.1191
  3.309   5.0573
  3.307   5.1809
  3.305   5.2015
  3.303   5.1397
  3.301   5.1191
  3.299   5.1706
  3.297   5.2015
  3.295   5.1397
  3.293   5.0676
  3.291   5.0676
  3.288   5.0676
  3.286   5.0367
  3.284   4.9337
  3.282   4.9337
  3.280   5.0161
  3.278   5.0573
  3.276   4.9955
  3.274   4.9646
  3.272   4.9028
  3.270   4.8410
  3.268   4.8513
  3.266   4.9440
  3.264   4.8616
  3.262   4.7483
  3.259   4.7792
  3.257   4.8307
  3.255   4.8204
  3.253   4.8204
  3.251   4.7998
  3.249   4.8101
  3.247   4.7792
  3.245   4.8204
  3.243   4.8101
  3.241   4.7895
  3.239   4.7792
  3.237   4.7277
  3.235   4.6247
  3.233   4.7483
  3.231   4.7792
  3.229   4.7483
  3.227   4.7792
  3.225   4.7380
  3.223   4.6247
  3.221   4.6659
  3.219   4.5526
  3.217   4.3981
  3.215   4.4084
  3.213   4.5526
  3.211   4.6762
  3.209   4.6762
  3.207   4.5938
  3.205   4.4599
  3.203   4.4290
  3.201   4.5320
  3.199   4.5526
  3.197   4.4084
  3.195   4.3054
  3.193   4.3363
  3.191   4.3054
  3.189   4.4290
  3.187   4.4702
  3.185   4.4290
  3.183   4.3157
  3.182   4.3260
  3.180   4.3054
  3.178   4.2642
  3.176   4.2127
  3.174   4.2951
  3.172   4.3157
  3.170   4.2539
  3.168   4.2436
  3.166   4.3157
  3.164   4.1921
  3.162   4.0891
  3.160   4.2127
  3.158   4.2436
  3.156   4.2539
  3.154   4.1921
  3.152   4.0376
  3.151   4.0582
  3.149   4.0891
  3.147   4.1200
  3.145   4.1097
  3.143   4.0994
  3.141   4.0891
  3.139   4.0994
  3.137   4.0479
  3.135   4.0170
  3.133   3.9449
  3.132   3.9552
  3.130   3.9964
  3.128   3.9346
  3.126   3.8110
  3.124   3.7286
  3.122   3.7389
  3.120   3.8213
  3.118   3.8934
  3.117   3.9449
  3.115   3.8625
  3.113   3.8728
  3.111   3.9449
  3.109   3.9861
  3.107   3.8522
  3.105   3.7801
  3.103   3.7904
  3.102   3.8522
  3.100   3.8625
  3.098   3.9346
  3.096   3.9346
  3.094   3.8316
  3.092   3.7183
  3.091   3.7389
  3.089   3.7698
  3.087   3.7595
  3.085   3.7080
  3.083   3.7286
  3.081   3.7389
  3.079   3.7595
  3.078   3.7698
  3.076   3.7595
  3.074   3.6050
  3.072   3.6050
  3.070   3.7801
  3.069   3.8007
  3.067   3.6668
  3.065   3.6874
  3.063   3.7595
  3.061   3.7183
  3.060   3.6359
  3.058   3.7183
  3.056   3.6771
  3.054   3.6565
  3.052   3.6668
  3.051   3.8110
  3.049   3.8625
  3.047   3.7286
  3.045   3.7080
  3.043   3.6977
  3.042   3.5741
  3.040   3.4814
  3.038   3.5020
  3.036   3.6668
  3.034   3.6874
  3.033   3.6359
  3.031   3.6050
  3.029   3.6565
  3.027   3.5123
  3.026   3.4917
  3.024   3.5741
  3.022   3.6050
  3.020   3.6050
  3.019   3.6771
  3.017   3.6256
  3.015   3.5844
  3.013   3.6153
  3.012   3.5741
  3.010   3.5020
  3.008   3.5947
  3.006   3.7080
  3.005   3.6359
  3.003   3.5638
  3.001   3.6771
  2.999   3.6771
  2.998   3.5226
  2.996   3.4505
  2.994   3.6565
  2.992   3.7904
  2.991   3.7389
  2.989   3.5741
  2.987   3.6050
  2.986   3.6153
  2.984   3.5638
  2.982   3.4711
  2.980   3.5329
  2.979   3.5947
  2.977   3.5123
  2.975   3.4196
  2.974   3.3372
  2.972   3.4402
  2.970   3.5741
  2.968   3.5844
  2.967   3.6050
  2.965   3.4917
  2.963   3.5432
  2.962   3.5638
  2.960   3.5638
  2.958   3.5329
  2.957   3.5535
  2.955   3.5020
  2.953   3.4814
  2.952   3.4402
  2.950   3.3475
  2.948   3.2239
  2.947   3.2754
  2.945   3.4093
  2.943   3.3784
  2.942   3.3269
  2.940   3.3681
  2.938   3.4402
  2.937   3.6977
  2.935   3.6359
  2.933   3.4402
  2.932   3.3372
  2.930   3.3784
  2.928   3.2960
  2.927   3.3475
  2.925   3.3578
  2.923   3.4814
  2.922   3.4711
  2.920   3.3887
  2.918   3.3475
  2.917   3.3887
  2.915   3.4814
  2.913   3.5741
  2.912   3.6565
  2.910   3.5638
  2.909   3.3578
  2.907   3.5123
  2.905   3.5329
  2.904   3.4299
  2.902   3.3475
  2.900   3.5226
  2.899   3.6256
  2.897   3.6565
  2.896   3.6359
  2.894   3.5741
  2.892   3.3578
  2.891   3.2857
  2.889   3.2033
  2.887   3.3887
  2.886   3.6874
  2.884   3.5741
  2.883   3.3990
  2.881   3.5020
  2.879   3.5844
  2.878   3.5329
  2.876   3.4505
  2.875   3.5226
  2.873   3.4608
  2.871   3.2548
  2.870   3.2651
  2.868   3.4917
  2.867   3.5123
  2.865   3.4814
  2.864   3.5329
  2.862   3.7080
  2.860   3.6771
  2.859   3.7595
  2.857   3.8316
  2.856   3.7595
  2.854   3.3475
  2.853   3.3578
  2.851   3.7389
  2.849   3.8831
  2.848   3.7492
  2.846   3.7698
  2.845   3.7183
  2.843   3.5844
  2.842   3.5226
  2.840   3.7801
  2.838   3.9655
  2.837   3.8625
  2.835   3.8419
  2.834   3.7080
  2.832   3.6050
  2.831   3.8213
  2.829   3.8110
  2.828   3.8419
  2.826   3.9243
  2.825   4.0273
  2.823   4.0479
  2.821   4.1097
  2.820   4.1200
  2.818   4.2127
  2.817   3.9346
  2.815   3.7904
  2.814   3.9655
  2.812   4.0582
  2.811   4.2230
  2.809   4.1715
  2.808   4.0273
  2.806   4.0376
  2.805   4.0788
  2.803   4.3157
  2.802   4.4290
  2.800   4.2745
  2.799   4.0479
  2.797   4.1612
  2.796   4.1612
  2.794   4.0994
  2.793   4.1097
  2.791   4.2951
  2.790   4.3260
  2.788   4.3157
  2.787   4.2745
  2.785   4.3569
  2.784   4.4908
  2.782   4.4702
  2.781   4.3260
  2.779   4.3672
  2.778   4.3569
  2.776   4.2951
  2.775   4.3260
  2.773   4.4599
  2.772   4.1303
  2.770   4.2024
  2.769   4.3569
  2.767   4.2436
  2.766   4.2745
  2.764   4.4599
  2.763   4.6041
  2.761   4.6144
  2.760   4.5114
  2.758   4.4702
  2.757   4.5526
  2.756   4.7380
  2.754   4.6762
  2.753   4.5732
  2.751   4.6041
  2.750   4.8925
  2.748   4.9028
  2.747   4.7792
  2.745   4.8719
  2.744   4.9955
  2.742   4.9440
  2.741   4.7895
  2.740   4.6247
  2.738   4.7380
  2.737   4.8410
  2.735   5.0058
  2.734   5.2633
  2.732   5.5002
  2.731   5.5311
  2.729   5.5311
  2.728   5.5723
  2.727   5.5517
  2.725   5.6547
  2.724   5.7680
  2.722   5.7474
  2.721   5.7680
  2.719   5.7371
  2.718   5.7371
  2.717   5.7783
  2.715   5.8916
  2.714   6.1182
  2.712   6.1903
  2.711   6.2212
  2.709   6.1697
  2.708   6.2418
  2.707   6.5302
  2.705   6.7259
  2.704   7.0246
  2.702   7.5499
  2.701   8.4151
  2.700   9.1773
  2.698   9.5893
  2.697   9.8468
  2.695  10.3515
  2.694  11.0313
  2.693  11.9377
  2.691  12.5351
  2.690  12.9574
  2.688  13.3591
  2.687  13.8844
  2.686  14.4303
  2.684  15.0895
  2.683  15.8620
  2.681  16.1916
  2.680  16.3873
  2.679  16.6757
  2.677  17.1598
  2.676  17.5615
  2.675  17.7778
  2.673  18.2413
  2.672  19.0138
  2.670  19.5597
  2.669  19.5597
  2.668  20.0232
  2.666  20.5279
  2.665  20.7751
  2.664  20.9090
  2.662  21.1459
  2.661  21.2798
  2.659  21.4549
  2.658  21.7639
  2.657  22.1965
  2.655  22.4952
  2.654  22.6703
  2.653  22.6291
  2.651  22.8248
  2.650  22.9793
  2.649  23.0823
  2.647  23.3192
  2.646  23.5252
  2.645  23.6385
  2.643  23.8342
  2.642  23.9372
  2.640  24.0402
  2.639  24.3286
  2.638  24.4831
  2.636  24.5037
  2.635  24.5758
  2.634  24.8127
  2.632  25.0496
  2.631  25.2247
  2.630  25.2865
  2.628  25.1629
  2.627  25.3998
  2.626  25.5852
  2.624  25.6161
  2.623  25.4925
  2.622  25.6161
  2.620  25.8118
  2.619  25.8118
  2.618  26.0487
  2.617  26.2959
  2.615  25.9663
  2.614  26.0590
  2.613  26.1414
  2.611  26.0487
  2.610  26.2341
  2.609  26.4401
  2.607  26.5534
  2.606  27.0375
  2.605  27.2023
  2.603  26.8830
  2.602  26.5946
  2.601  26.6770
  2.599  26.7079
  2.598  26.9139
  2.597  26.9448
  2.596  27.2023
  2.594  27.3980
  2.593  27.1920
  2.592  27.2847
  2.590  27.5113
  2.589  27.4186
  2.588  27.5010
  2.586  27.5113
  2.585  27.2950
  2.584  27.2641
  2.583  27.3671
  2.581  27.2435
  2.580  27.2641
  2.579  27.6040
  2.577  28.2426
  2.576  28.3147
  2.575  27.8718
  2.574  27.6143
  2.572  27.7173
  2.571  27.9027
  2.570  28.0984
  2.569  28.1087
  2.567  27.9336
  2.566  27.6864
  2.565  27.9233
  2.563  28.1808
  2.562  28.3971
  2.561  28.3250
  2.560  28.3353
  2.558  28.1602
  2.557  27.9027
  2.556  27.9954
  2.555  28.2014
  2.553  28.0984
  2.552  27.9130
  2.551  28.0984
  2.550  28.3868
  2.548  28.3559
  2.547  28.2323
  2.546  27.9439
  2.545  28.1190
  2.543  28.4486
  2.542  28.6031
  2.541  28.5413
  2.540  28.5104
  2.538  28.4383
  2.537  28.5413
  2.536  28.5001
  2.535  28.4074
  2.533  28.6855
  2.532  28.6443
  2.531  28.5928
  2.530  28.8194
  2.528  28.5928
  2.527  28.2632
  2.526  28.3971
  2.525  28.6752
  2.524  28.9739
  2.522  29.0151
  2.521  28.6031
  2.520  28.8400
  2.519  29.1696
  2.517  29.1078
  2.516  29.1284
  2.515  29.2417
  2.514  29.2005
  2.513  29.2726
  2.511  29.4374
  2.510  29.2726
  2.509  29.2211
  2.508  29.4683
  2.506  29.5198
  2.505  29.5095
  2.504  29.4683
  2.503  29.4168
  2.502  29.2829
  2.500  29.6125
  2.500  29.6125
  2.496  29.8076
  2.492  30.4649
  2.488  29.9665
  2.484  31.0378
  2.480  30.5969
  2.476  30.7709
  2.472  30.9642
  2.468  31.3310
  2.464  31.7339
  2.460  31.6593
  2.456  32.1399
  2.452  32.4131
  2.448  32.2979
  2.444  33.1173
  2.440  33.4843
  2.436  33.6184
  2.432  33.6075
  2.428  34.2443
  2.424  34.3522
  2.420  34.4238
  2.416  35.2322
  2.412  35.1484
  2.408  35.4524
  2.404  35.9013
  2.400  36.1744
  2.396  36.2422
  2.392  36.3746
  2.388  37.1287
  2.384  37.0642
  2.380  37.3826
  2.376  37.6213
  2.372  37.9021
  2.368  38.1954
  2.364  38.4152
  2.360  38.3985
  2.356  38.6535
  2.352  38.6417
  2.348  38.7641
  2.344  39.0158
  2.340  39.1260
  2.336  39.2751
  2.332  39.1111
  2.328  39.0779
  2.324  39.0308
  2.320  39.2348
  2.316  39.2453
  2.312  39.1834
  2.308  39.0553
  2.304  39.4349
  2.300  39.3460
  2.296  39.4281
  2.292  39.3970
  2.288  39.5201
  2.284  39.6933
  2.280  39.7011
  2.276  39.7053
  2.272  39.7596
  2.268  39.7649
  2.264  39.9449
  2.260  39.9578
  2.256  39.9809
  2.252  40.0209
  2.248  40.2771
  2.244  40.1509
  2.240  40.1875
  2.236  40.2239
  2.232  40.3119
  2.228  40.3176
  2.224  40.3028
  2.220  40.0516
  2.216  40.0551
  2.212  40.1827
  2.208  40.4097
  2.204  40.7046
  2.200  40.9702
  2.196  41.3391
  2.192  41.5612
  2.188  41.8183
  2.184  42.0116
  2.180  42.1595
  2.176  42.3764
  2.172  42.6297
  2.168  42.7333
  2.164  42.9017
  2.160  43.0455
  2.156  43.2203
  2.152  43.3611
  2.148  43.5448
  2.144  43.5720
  2.140  43.6259
  2.136  43.5959
  2.132  43.5629
  2.128  43.5320
  2.124  43.4178
  2.120  43.3052
  2.116  43.1986
  2.112  43.0509
  2.108  42.8864
  2.104  42.8208
  2.100  42.6875
  2.096  42.6162
  2.092  42.5425
  2.088  42.4912
  2.084  42.4291
  2.080  42.3775
  2.076  42.3092
  2.072  42.2204
  2.068  42.1027
  2.064  41.9654
  2.060  41.9160
  2.056  41.8817
  2.052  41.7820
  2.048  41.6501
  2.044  41.4883
  2.040  41.3721
  2.036  41.2190
  2.032  41.0099
  2.028  40.8064
  2.024  40.5454
  2.020  40.2628
  2.016  40.0375
  2.012  39.7836
  2.008  39.5171
  2.004  39.2980
  2.000  39.0907
  1.996  38.8557
  1.992  38.6671
  1.988  38.4317
  1.984  38.1597
  1.980  37.8910
  1.976  37.6233
  1.972  37.3956
  1.968  37.1236
  1.964  36.8538
  1.960  36.5747
  1.956  36.3428
  1.952  36.1951
  1.948  36.0165
  1.944  35.8636
  1.940  35.8327
  1.936  35.6925
  1.932  35.4908
  1.928  35.3908
  1.924  35.3721
  1.920  35.3730
  1.916  35.3774
  1.912  35.4854
  1.908  35.8999
  1.904  36.6230
  1.900  37.6092
  1.896  38.8114
  1.892  40.0295
  1.888  41.2664
  1.884  42.5560
  1.880  43.7797
  1.876  44.9104
  1.872  46.0058
  1.868  46.9170
  1.864  47.5185
  1.860  47.9075
  1.856  48.1934
  1.852  48.4175
  1.848  48.5998
  1.844  48.7469
  1.840  48.8157
  1.836  48.8524
  1.832  48.8891
  1.828  48.9341
  1.824  48.9674
  1.820  48.9774
  1.816  48.9563
  1.812  48.9415
  1.808  48.9679
  1.804  48.9773
  1.800  49.0293
  1.796  49.0872
  1.792  49.1089
  1.788  49.1578
  1.784  49.2952
  1.780  49.4037
  1.776  49.4601
  1.772  49.4605
  1.768  49.4610
  1.764  49.5169
  1.760  49.5643
  1.756  49.6481
  1.752  49.7684
  1.748  49.8751
  1.744  49.9953
  1.740  50.0858
  1.736  50.1328
  1.732  50.2425
  1.728  50.3669
  1.724  50.4381
  1.720  50.5253
  1.716  50.5945
  1.712  50.6220
  1.708  50.6810
  1.704  50.7483
  1.700  50.8333
  1.696  50.8897
  1.692  50.9381
  1.688  50.9812
  1.684  51.0286
  1.680  51.0349
  1.676  51.0778
  1.672  51.1276
  1.668  51.1350
  1.664  51.2100
  1.660  51.2235
  1.656  51.2084
  1.652  51.2316
  1.648  51.2548
  1.644  51.2876
  1.640  51.3324
  1.636  51.3149
  1.632  51.3101
  1.628  51.3072
  1.624  51.2885
  1.620  51.2924
  1.616  51.2668
  1.612  51.2699
  1.608  51.2591
  1.604  51.2172
  1.600  51.2697
  1.596  51.2032
  1.592  51.1674
  1.588  51.1043
  1.584  51.0663
  1.580  51.0159
  1.576  51.0522
  1.572  50.9561
  1.568  50.9096
  1.564  50.8005
  1.560  50.7771
  1.556  50.6747
  1.552  50.5536
  1.548  50.5054
  1.544  50.3817
  1.540  50.3329
  1.536  50.1711
  1.532  50.0303
  1.528  49.8761
  1.524  49.8396
  1.520  49.7110
  1.516  49.5993
  1.512  49.4658
  1.508  49.2926
  1.504  49.1686
  1.500  49.0367
  1.496  48.9415
  1.492  48.7527
  1.488  48.5964
  1.484  48.4361
  1.480  48.3450
  1.476  48.1699
  1.472  48.0436
  1.468  47.8984
  1.464  47.7649
  1.460  47.7226
  1.456  47.6915
  1.452  47.6611
  1.448  47.6613
  1.444  47.6815
  1.440  47.6906
  1.436  47.6636
  1.432  47.7591
  1.428  47.6675
  1.424  47.5733
  1.420  47.5003
  1.416  47.4902
  1.412  47.6862
  1.408  47.9246
  1.404  48.3047
  1.400  48.8470
  1.396  49.4271
  1.392  49.9162
  1.388  50.4645
  1.384  51.1574
  1.380  51.8205
  1.376  52.2895
  1.372  52.5904
  1.368  52.9087
  1.364  53.1379
  1.360  53.2898
  1.356  53.4375
  1.352  53.5390
  1.348  53.6407
  1.344  53.7654
  1.340  53.8594
  1.336  53.8918
  1.332  53.9504
  1.328  53.9963
  1.324  54.1688
  1.320  54.1733
  1.316  54.2007
  1.312  54.2535
  1.308  54.3539
  1.304  54.4528
  1.300  54.4118
  1.296  54.3996
  1.292  54.4279
  1.288  54.4453
  1.284  54.5267
  1.280  54.4822
  1.276  54.4385
  1.272  54.5021
  1.268  54.5237
  1.264  54.4936
  1.260  54.4905
  1.256  54.5628
  1.252  54.4614
  1.248  54.4715
  1.244  54.5363
  1.240  54.5059
  1.236  54.4321
  1.232  54.4907
  1.228  54.4841
  1.224  54.4918
  1.220  54.5265
  1.216  54.5113
  1.212  54.4829
  1.208  54.4465
  1.204  54.4547
  1.200  54.4479
  1.196  54.4376
  1.192  54.4281
  1.188  54.4137
  1.184  54.4457
  1.180  54.4430
  1.176  54.4440
  1.172  54.4800
  1.168  54.4752
  1.164  54.4654
  1.160  54.4708
  1.156  54.4606
  1.152  54.4865
  1.148  54.5036
  1.144  54.5846
  1.140  54.6431
  1.136  54.7308
  1.132  54.7490
  1.128  54.7771
  1.124  54.8188
  1.120  54.8374
  1.116  54.7708
  1.112  54.8033
  1.108  54.8170
  1.104  54.8857
  1.100  54.8778
  1.096  54.8712
  1.092  54.8628
  1.088  54.8583
  1.084  54.8792
  1.080  54.8852
  1.076  54.8796
  1.072  54.8645
  1.068  54.8761
  1.064  54.8793
  1.060  54.8330
  1.056  54.8858
  1.052  54.8677
  1.048  54.8201
  1.044  54.8314
  1.040  54.8123
  1.036  54.8538
  1.032  54.8373
  1.028  54.8143
  1.024  54.7692
  1.020  54.7719
  1.016  54.7600
  1.012  54.7379
  1.008  54.7531
  1.004  54.7423
  1.000  54.7324
  0.996  54.7330
  0.992  54.7127
  0.988  54.6669
  0.984  54.6417
  0.980  54.6557
  0.976  54.6658
  0.972  54.6360
  0.968  54.6242
  0.964  54.5893
  0.960  54.6057
  0.956  54.5839
  0.952  54.5361
  0.948  54.5489
  0.944  54.5504
  0.940  54.5058
  0.936  54.4501
  0.932  54.3739
  0.928  54.2000
  0.924  54.0487
  0.920  53.9645
  0.916  54.0452
  0.912  54.1983
  0.908  54.1915
  0.904  54.2012
  0.900  54.2170
  0.896  54.2231
  0.892  54.2288
  0.888  54.1621
  0.884  54.1608
  0.880  54.2529
  0.876  54.2365
  0.872  54.1650
  0.868  54.1255
  0.864  54.1671
  0.860  54.1518
  0.856  54.5367
  0.852  55.1153
  0.848  55.1434
  0.844  55.0865
  0.840  55.0602
  0.836  55.1645
  0.832  55.0249
  0.828  54.9573
  0.824  54.9719
  0.820  55.0400
  0.816  54.9911
  0.812  54.9288
  0.808  54.9749
  0.804  54.9519
  0.800  54.9348
  0.796  54.8897
  0.792  54.8199
  0.788  54.8182
  0.784  54.8605
  0.780  54.7726
  0.776  54.7820
  0.772  54.7083
  0.768  54.6628
  0.764  54.6508
  0.760  54.5954
  0.756  54.6089
  0.752  54.5590
  0.748  54.5690
  0.744  54.5131
  0.740  54.4405
  0.736  54.3694
  0.732  54.2888
  0.728  54.3234
  0.724  54.2494
  0.720  54.1417
  0.716  54.0979
  0.712  54.0688
  0.708  53.9405
  0.704  53.8596
  0.700  53.7539
  0.696  53.6918
  0.692  53.6149
  0.688  53.5198
  0.684  53.3878
  0.680  53.3280
  0.676  53.2466
  0.672  53.1482
  0.668  53.0508
  0.664  52.9467
  0.660  52.8428
  0.656  52.7754
  0.652  52.6524
  0.648  52.5633
  0.644  52.4548
  0.640  52.3570
  0.636  52.2561
  0.632  52.1394
  0.628  52.0549
  0.624  51.9312
  0.620  51.8063
  0.616  51.6330
  0.612  51.4767
  0.608  51.3409
  0.604  51.0946
  0.600  50.8583
  0.596  50.6772
  0.592  50.4394
  0.588  50.1385
  0.584  49.7925
  0.580  49.4178
  0.576  49.0318
  0.572  48.6126
  0.568  48.1551
  0.564  47.6842
  0.560  47.2178
  0.556  46.7393
  0.552  46.2654
  0.548  45.7767
  0.544  45.2825
  0.540  44.8207
  0.536  44.3859
  0.532  43.9812
  0.528  43.5486
  0.524  43.1593
  0.520  42.7758
  0.516  42.3831
  0.512  41.9916
  0.508  41.6019
  0.504  41.2276
  0.500  40.8830
  0.496  40.5381
  0.492  40.2422
  0.488  39.9374
  0.484  39.6499
  0.480  39.4129
  0.476  39.1814
  0.472  38.9306
  0.468  38.6887
  0.464  38.4304
  0.460  38.1310
  0.456  37.7956
  0.452  37.4182
  0.448  37.0063
  0.444  36.5902
  0.440  36.1376
  0.436  35.6506
  0.432  35.1557
  0.428  34.6385
  0.424  34.1647
  0.420  33.7507
  0.416  33.2996
  0.412  32.8459
  0.408  32.4419
  0.404  32.0548
  0.400  31.6194  