Name: Altered volcanic tuff
Type: Rock
Class: Igneous
Subclass: Felsic
Particle Size: Whole rock chips
Sample No.: Cup5
Owner: USGS
Wavelength range: 0.40 - 14.05 um
Origin: Cuprite, Nevada

Description: Altered volcanic tuff, white





Measurement: Directional Hemispherical Reflectance
First Column: X
Second Column: Y
X Units: Wavelength (micrometers)
Y Units: Reflectance (percent)
First X Value: 14.05105
Last X Value: 0.40000
Number of X Values: 2756
Additional Information: None

 14.051   4.7689
 14.013   4.5835
 13.975   4.6453
 13.938   4.5423
 13.900   4.4393
 13.863   4.1097
 13.826   4.0376
 13.790   3.8007
 13.753   3.5432
 13.717   3.3681
 13.680   3.2754
 13.644   3.1106
 13.609   3.1106
 13.573   2.9149
 13.538   2.9149
 13.502   2.9355
 13.467   2.9973
 13.432   2.9252
 13.398   2.9252
 13.363   2.9458
 13.329   3.0076
 13.295   2.8943
 13.261   2.9664
 13.227   2.9870
 13.193   2.8943
 13.160   2.8016
 13.126   2.9149
 13.093   3.0076
 13.060   3.0900
 13.027   3.1003
 12.995   3.1724
 12.962   3.1415
 12.930   3.2136
 12.898   3.3269
 12.866   3.5329
 12.834   3.5020
 12.802   3.4505
 12.771   3.3372
 12.739   3.4196
 12.708   3.3887
 12.677   3.2651
 12.646   3.1106
 12.616   3.1209
 12.585   3.0488
 12.554   2.9870
 12.524   2.8531
 12.494   2.7810
 12.464   2.6780
 12.434   2.6471
 12.404   2.5235
 12.375   2.4514
 12.345   2.3896
 12.316   2.3999
 12.287   2.3587
 12.258   2.4514
 12.229   2.4514
 12.200   2.5235
 12.171   2.5750
 12.143   2.6368
 12.115   2.6265
 12.086   2.6471
 12.058   2.6574
 12.030   2.7604
 12.002   2.8016
 11.975   2.7913
 11.947   2.7604
 11.920   2.9664
 11.892   2.9767
 11.865   2.8737
 11.838   2.8325
 11.811   3.0591
 11.784   3.1827
 11.757   3.2754
 11.731   3.3475
 11.704   3.3166
 11.678   3.1724
 11.652   3.2857
 11.626   3.4402
 11.600   3.5226
 11.574   3.5020
 11.548   3.6153
 11.522   3.6153
 11.497   3.6668
 11.471   3.6874
 11.446   3.7389
 11.421   3.7080
 11.396   3.7904
 11.371   3.7595
 11.346   3.7698
 11.321   3.8213
 11.297   3.9861
 11.272   3.9964
 11.248   4.0067
 11.223   4.0170
 11.199   4.0788
 11.175   4.0994
 11.151   4.0994
 11.127   4.0582
 11.103   4.1303
 11.079   4.1921
 11.056   4.3157
 11.032   4.2745
 11.009   4.3157
 10.985   4.3466
 10.962   4.3878
 10.939   4.3363
 10.916   4.3569
 10.893   4.3981
 10.870   4.4393
 10.848   4.4702
 10.825   4.5526
 10.802   4.5011
 10.780   4.5423
 10.758   4.5835
 10.735   4.5835
 10.713   4.5423
 10.691   4.6144
 10.669   4.6350
 10.647   4.7689
 10.625   4.7586
 10.604   4.7277
 10.582   4.7895
 10.560   4.9337
 10.539   4.9337
 10.518   5.0058
 10.496   5.0676
 10.475   5.0573
 10.454   5.0264
 10.433   5.1191
 10.412   5.1809
 10.391   5.2736
 10.370   5.3045
 10.350   5.3972
 10.329   5.4487
 10.309   5.5311
 10.288   5.6032
 10.268   5.7062
 10.247   5.7783
 10.227   5.8710
 10.207   5.8710
 10.187   5.9740
 10.167   6.1182
 10.147   6.2212
 10.127   6.2212
 10.108   6.3242
 10.088   6.4581
 10.068   6.6435
 10.049   6.7980
 10.029   6.9319
 10.010   7.0143
  9.991   7.1379
  9.972   7.2512
  9.952   7.4366
  9.933   7.5602
  9.914   7.7456
  9.895   7.9207
  9.877   8.1473
  9.858   8.3842
  9.839   8.5799
  9.821   8.7653
  9.802   8.9713
  9.783   9.1258
  9.765   9.4142
  9.747   9.6923
  9.728   9.9601
  9.710  10.0940
  9.692  10.0322
  9.674   9.8262
  9.656   9.8983
  9.638   9.9910
  9.620  10.1661
  9.602  10.3824
  9.585  10.5987
  9.567  10.6811
  9.549  10.8665
  9.532  11.0313
  9.514  11.2888
  9.497  11.5772
  9.479  11.8862
  9.462  12.1231
  9.445  12.4321
  9.428  12.6999
  9.411  13.1428
  9.394  13.6578
  9.377  14.1831
  9.360  14.6981
  9.343  15.2131
  9.326  15.8517
  9.309  16.5521
  9.293  17.1289
  9.276  17.6233
  9.259  18.1074
  9.243  18.7460
  9.226  19.3846
  9.210  19.8996
  9.194  20.3528
  9.178  20.8678
  9.161  21.2798
  9.145  21.6712
  9.129  21.9905
  9.113  22.3716
  9.097  22.7527
  9.081  23.1132
  9.065  23.5664
  9.049  23.9887
  9.034  24.1741
  9.018  24.2977
  9.002  24.3389
  8.987  24.4316
  8.971  24.4316
  8.956  24.4419
  8.940  24.3904
  8.925  24.2977
  8.909  24.1329
  8.894  23.8960
  8.879  23.4943
  8.864  23.1647
  8.849  22.9381
  8.834  22.7424
  8.819  22.3407
  8.804  21.8257
  8.789  21.3313
  8.774  21.0120
  8.759  20.6309
  8.744  20.1262
  8.730  19.6009
  8.715  19.2095
  8.700  18.7872
  8.686  18.3958
  8.671  17.9014
  8.657  17.3555
  8.642  16.7890
  8.628  16.4079
  8.614  16.3976
  8.599  16.7581
  8.585  16.9744
  8.571  16.9023
  8.557  16.7272
  8.543  16.4903
  8.529  15.9856
  8.515  15.4088
  8.501  14.8732
  8.487  14.3994
  8.473  13.9462
  8.459  13.6475
  8.445  13.2355
  8.431  12.8235
  8.418  12.5145
  8.404  12.2467
  8.391  11.9068
  8.377  11.6287
  8.363  11.3918
  8.350  11.1240
  8.337  10.7944
  8.323  10.6605
  8.310  10.5266
  8.297  10.4236
  8.283  10.3309
  8.270  10.1867
  8.257   9.9704
  8.244   9.8365
  8.231   9.6614
  8.218   9.5893
  8.205   9.5069
  8.192   9.4760
  8.179   9.3833
  8.166   9.2906
  8.153   9.1155
  8.140   8.9713
  8.128   8.9507
  8.115   8.9610
  8.102   8.8374
  8.090   8.7344
  8.077   8.5490
  8.064   8.5181
  8.052   8.5284
  8.039   8.5902
  8.027   8.5902
  8.015   8.6314
  8.002   8.5902
  7.990   8.5490
  7.978   8.5799
  7.965   8.5696
  7.953   8.4460
  7.941   8.3533
  7.929   8.1782
  7.917   7.9104
  7.905   7.6220
  7.893   7.3542
  7.881   6.9422
  7.869   6.5714
  7.857   6.1594
  7.845   5.7783
  7.833   5.3766
  7.821   4.9955
  7.809   4.6350
  7.798   4.2745
  7.786   3.9655
  7.774   3.6565
  7.763   3.3372
  7.751   3.1621
  7.739   2.9355
  7.728   2.7295
  7.716   2.5750
  7.705   2.4720
  7.694   2.3793
  7.682   2.2454
  7.671   2.0909
  7.659   1.9673
  7.648   1.8849
  7.637   1.8334
  7.626   1.7613
  7.614   1.6583
  7.603   1.5656
  7.592   1.5553
  7.581   1.5347
  7.570   1.5244
  7.559   1.4317
  7.548   1.4008
  7.537   1.3802
  7.526   1.4008
  7.515   1.3802
  7.504   1.3699
  7.493   1.3390
  7.483   1.3081
  7.472   1.2360
  7.461   1.1948
  7.450   1.1948
  7.440   1.2051
  7.429   1.1330
  7.418   1.1433
  7.408   1.1639
  7.397   1.1845
  7.387   1.1742
  7.376   1.1742
  7.366   1.1742
  7.355   1.2051
  7.345   1.1639
  7.334   1.1330
  7.324   1.1433
  7.314   1.1742
  7.303   1.1227
  7.293   1.1021
  7.283   1.0712
  7.273   1.1227
  7.263   1.1124
  7.252   1.0506
  7.242   1.0609
  7.232   1.0712
  7.222   1.0197
  7.212   1.0815
  7.202   1.1639
  7.192   1.1845
  7.182   1.1742
  7.172   1.1536
  7.162   1.1330
  7.152   1.2051
  7.143   1.1639
  7.133   1.1742
  7.123   1.1845
  7.113   1.1536
  7.103   1.1433
  7.094   1.1330
  7.084   1.1124
  7.074   1.1742
  7.065   1.2257
  7.055   1.2566
  7.046   1.2257
  7.036   1.2566
  7.026   1.2463
  7.017   1.1948
  7.007   1.1536
  6.998   1.1948
  6.989   1.2257
  6.979   1.2772
  6.970   1.2154
  6.960   1.2051
  6.951   1.2154
  6.942   1.2772
  6.932   1.2875
  6.923   1.2978
  6.914   1.2360
  6.905   1.2463
  6.896   1.3184
  6.886   1.3905
  6.877   1.3081
  6.868   1.3287
  6.859   1.3699
  6.850   1.4008
  6.841   1.3493
  6.832   1.3699
  6.823   1.3905
  6.814   1.4008
  6.805   1.4008
  6.796   1.4111
  6.787   1.4111
  6.778   1.4317
  6.770   1.4935
  6.761   1.5244
  6.752   1.5553
  6.743   1.6583
  6.734   1.6274
  6.726   1.6171
  6.717   1.6274
  6.708   1.7304
  6.700   1.7407
  6.691   1.7304
  6.682   1.7510
  6.674   1.7510
  6.665   1.6995
  6.657   1.7613
  6.648   1.8231
  6.640   1.8231
  6.631   1.8128
  6.623   1.8231
  6.614   1.7819
  6.606   1.8231
  6.597   1.9158
  6.589   2.0188
  6.581   1.9879
  6.572   1.9673
  6.564   1.9467
  6.556   1.9879
  6.547   2.0085
  6.539   2.0291
  6.531   2.0394
  6.523   2.0497
  6.514   2.1012
  6.506   2.1836
  6.498   2.2145
  6.490   2.2248
  6.482   2.2042
  6.474   2.2351
  6.466   2.3072
  6.458   2.3278
  6.450   2.2557
  6.442   2.2454
  6.434   2.2866
  6.426   2.3072
  6.418   2.2866
  6.410   2.3690
  6.402   2.3896
  6.394   2.3793
  6.386   2.3381
  6.378   2.2969
  6.370   2.2557
  6.363   2.2248
  6.355   2.2042
  6.347   2.2557
  6.339   2.2969
  6.332   2.2557
  6.324   2.1733
  6.316   2.1630
  6.308   2.1321
  6.301   2.0909
  6.293   2.0600
  6.286   2.1012
  6.278   2.0909
  6.270   2.0703
  6.263   2.0703
  6.255   2.1115
  6.248   2.0806
  6.240   2.0394
  6.233   2.0291
  6.225   1.9982
  6.218   1.9982
  6.210   1.9879
  6.203   1.9467
  6.195   1.9570
  6.188   1.8849
  6.181   1.8231
  6.173   1.8540
  6.166   1.8746
  6.159   1.8231
  6.151   1.8128
  6.144   1.8540
  6.137   1.9158
  6.130   1.8746
  6.122   1.8437
  6.115   1.8746
  6.108   1.8952
  6.101   1.8231
  6.094   1.7819
  6.086   1.7922
  6.079   1.8334
  6.072   1.8334
  6.065   1.8334
  6.058   1.8334
  6.051   1.9158
  6.044   1.9467
  6.037   1.8952
  6.030   1.9261
  6.023   1.9673
  6.016   1.9158
  6.009   1.9776
  6.002   2.0497
  5.995   2.0600
  5.988   2.0497
  5.981   2.1012
  5.974   2.1424
  5.967   2.1321
  5.960   2.1321
  5.954   2.2145
  5.947   2.2763
  5.940   2.3484
  5.933   2.4102
  5.926   2.4411
  5.920   2.4205
  5.913   2.4617
  5.906   2.5235
  5.899   2.5956
  5.893   2.6574
  5.886   2.7192
  5.879   2.7295
  5.873   2.7707
  5.866   2.7810
  5.859   2.8119
  5.853   2.8531
  5.846   2.9149
  5.840   2.9458
  5.833   2.9561
  5.827   2.9767
  5.820   3.0179
  5.813   3.0797
  5.807   3.1312
  5.800   3.1106
  5.794   3.0591
  5.788   3.0179
  5.781   3.0591
  5.775   3.1003
  5.768   3.0900
  5.762   3.0797
  5.755   3.0591
  5.749   3.0591
  5.743   3.1003
  5.736   3.1003
  5.730   3.1003
  5.724   3.1003
  5.717   3.1621
  5.711   3.2445
  5.705   3.2857
  5.698   3.3063
  5.692   3.3578
  5.686   3.3990
  5.680   3.4608
  5.674   3.4917
  5.667   3.4608
  5.661   3.4608
  5.655   3.5123
  5.649   3.5226
  5.643   3.5123
  5.637   3.5638
  5.630   3.5535
  5.624   3.5226
  5.618   3.5638
  5.612   3.6153
  5.606   3.6359
  5.600   3.5947
  5.594   3.6153
  5.588   3.6050
  5.582   3.5741
  5.576   3.6256
  5.570   3.6153
  5.564   3.5844
  5.558   3.6050
  5.552   3.6256
  5.546   3.6462
  5.540   3.6874
  5.534   3.7080
  5.528   3.7183
  5.523   3.7801
  5.517   3.7801
  5.511   3.8110
  5.505   3.8213
  5.499   3.7904
  5.493   3.8316
  5.487   3.8831
  5.482   3.8831
  5.476   3.9243
  5.470   3.9346
  5.464   3.9243
  5.459   3.9346
  5.453   3.9140
  5.447   3.8625
  5.441   3.8625
  5.436   3.8522
  5.430   3.8213
  5.424   3.8213
  5.419   3.8522
  5.413   3.8007
  5.407   3.7183
  5.402   3.6462
  5.396   3.6050
  5.390   3.5432
  5.385   3.4608
  5.379   3.3990
  5.374   3.3887
  5.368   3.3475
  5.363   3.3063
  5.357   3.2239
  5.352   3.1724
  5.346   3.1724
  5.341   3.2033
  5.335   3.1518
  5.330   3.1518
  5.324   3.1415
  5.319   3.1415
  5.313   3.1827
  5.308   3.2342
  5.302   3.2136
  5.297   3.2239
  5.291   3.2548
  5.286   3.2857
  5.281   3.3475
  5.275   3.3681
  5.270   3.3990
  5.265   3.4505
  5.259   3.4917
  5.254   3.5535
  5.249   3.5947
  5.243   3.6256
  5.238   3.7286
  5.233   3.8625
  5.227   3.9037
  5.222   3.9449
  5.217   4.0376
  5.212   4.1097
  5.206   4.1921
  5.201   4.2745
  5.196   4.3157
  5.191   4.3775
  5.186   4.4908
  5.180   4.5629
  5.175   4.5938
  5.170   4.6144
  5.165   4.6865
  5.160   4.7792
  5.155   4.7998
  5.150   4.8101
  5.145   4.8101
  5.139   4.8410
  5.134   4.8719
  5.129   4.8822
  5.124   4.8719
  5.119   4.9028
  5.114   4.9131
  5.109   4.8822
  5.104   4.8925
  5.099   4.8925
  5.094   4.8616
  5.089   4.8204
  5.084   4.7792
  5.079   4.7998
  5.074   4.8410
  5.069   4.8410
  5.064   4.8204
  5.059   4.7998
  5.054   4.7586
  5.049   4.7174
  5.044   4.6659
  5.040   4.6762
  5.035   4.6659
  5.030   4.6659
  5.025   4.6968
  5.020   4.6762
  5.015   4.6453
  5.010   4.6350
  5.005   4.6041
  5.001   4.5835
  4.996   4.6041
  4.991   4.6144
  4.986   4.6247
  4.981   4.6350
  4.977   4.6556
  4.972   4.6453
  4.967   4.6247
  4.962   4.6247
  4.958   4.6350
  4.953   4.6762
  4.948   4.7071
  4.943   4.7174
  4.939   4.7792
  4.934   4.9028
  4.929   4.9337
  4.925   4.9646
  4.920   5.0779
  4.915   5.1088
  4.911   5.0985
  4.906   5.1809
  4.901   5.3251
  4.897   5.4796
  4.892   5.6135
  4.888   5.6547
  4.883   5.6856
  4.878   5.7886
  4.874   5.9328
  4.869   5.9843
  4.865   6.0255
  4.860   6.1800
  4.856   6.2521
  4.851   6.2624
  4.846   6.2418
  4.842   6.3448
  4.837   6.4890
  4.833   6.6950
  4.828   6.8701
  4.824   7.0040
  4.819   7.2100
  4.815   7.3645
  4.810   7.3645
  4.806   7.3748
  4.802   7.4160
  4.797   7.3645
  4.793   7.3439
  4.788   7.3439
  4.784   7.2409
  4.779   7.1276
  4.775   6.9937
  4.771   6.8186
  4.766   6.6538
  4.762   6.4993
  4.758   6.3551
  4.753   6.2830
  4.749   6.1903
  4.744   6.0770
  4.740   5.8710
  4.736   5.7268
  4.731   5.6238
  4.727   5.6341
  4.723   5.6753
  4.719   5.6444
  4.714   5.6341
  4.710   5.7268
  4.706   5.7783
  4.701   5.8195
  4.697   5.8916
  4.693   5.9431
  4.689   5.9431
  4.684   5.9225
  4.680   5.8607
  4.676   5.8813
  4.672   5.9328
  4.668   5.9946
  4.663   6.0873
  4.659   6.1388
  4.655   6.1388
  4.651   6.1182
  4.647   6.1079
  4.643   6.0255
  4.638   5.9740
  4.634   5.9946
  4.630   5.9843
  4.626   5.9122
  4.622   5.7989
  4.618   5.7680
  4.614   5.8195
  4.610   5.8607
  4.605   5.8195
  4.601   5.7680
  4.597   5.7371
  4.593   5.6856
  4.589   5.7062
  4.585   5.7783
  4.581   5.7989
  4.577   5.8710
  4.573   5.9328
  4.569   5.9328
  4.565   5.9431
  4.561   6.0049
  4.557   6.0873
  4.553   6.0770
  4.549   6.0255
  4.545   5.9740
  4.541   5.9637
  4.537   6.0358
  4.533   6.0667
  4.529   6.1285
  4.525   6.2212
  4.521   6.2727
  4.517   6.2109
  4.513   6.1388
  4.509   6.1079
  4.505   6.1800
  4.502   6.2109
  4.498   6.2109
  4.494   6.2418
  4.490   6.1800
  4.486   6.1697
  4.482   6.2315
  4.478   6.3448
  4.474   6.3551
  4.470   6.3860
  4.467   6.4581
  4.463   6.4787
  4.459   6.4478
  4.455   6.4478
  4.451   6.4478
  4.447   6.4890
  4.444   6.5508
  4.440   6.5405
  4.436   6.5302
  4.432   6.5714
  4.428   6.5714
  4.425   6.5611
  4.421   6.5920
  4.417   6.6435
  4.413   6.7156
  4.410   6.7362
  4.406   6.7053
  4.402   6.6538
  4.398   6.6641
  4.395   6.7156
  4.391   6.7877
  4.387   6.7980
  4.384   6.7465
  4.380   6.7259
  4.376   6.7053
  4.372   6.6744
  4.369   6.6744
  4.365   6.6538
  4.361   6.6229
  4.358   6.6847
  4.354   6.7671
  4.350   6.7980
  4.347   6.8392
  4.343   6.9010
  4.340   6.9216
  4.336   7.0143
  4.332   7.0761
  4.329   7.1791
  4.325   7.2821
  4.321   7.4057
  4.318   7.4778
  4.314   7.6117
  4.311   7.7044
  4.307   7.8383
  4.304   7.9928
  4.300   8.1164
  4.296   8.2297
  4.293   8.3327
  4.289   8.3533
  4.286   8.4048
  4.282   8.4666
  4.279   8.5387
  4.275   8.6726
  4.272   8.7962
  4.268   8.8271
  4.265   8.8683
  4.261   8.9301
  4.258   9.0228
  4.254   9.0537
  4.251   9.0743
  4.247   9.1567
  4.244   9.2803
  4.240   9.3524
  4.237   9.4554
  4.233   9.6099
  4.230   9.7747
  4.226   9.8674
  4.223   9.8880
  4.219   9.8983
  4.216  10.0219
  4.213  10.1455
  4.209  10.1764
  4.206  10.1558
  4.202  10.1558
  4.199  10.2485
  4.196  10.3103
  4.192  10.3515
  4.189  10.3515
  4.185  10.3412
  4.182  10.3824
  4.179  10.4236
  4.175  10.4442
  4.172  10.4648
  4.169  10.4957
  4.165  10.4442
  4.162  10.3824
  4.159  10.4133
  4.155  10.4133
  4.152  10.4339
  4.149  10.4957
  4.145  10.4854
  4.142  10.4648
  4.139  10.4957
  4.135  10.5678
  4.132  10.6193
  4.129  10.6605
  4.126  10.6399
  4.122  10.7017
  4.119  10.7841
  4.116  10.7841
  4.112  10.7841
  4.109  10.7738
  4.106  10.8871
  4.103  11.0004
  4.099  11.0004
  4.096  10.9386
  4.093  11.0416
  4.090  11.1755
  4.086  11.2373
  4.083  11.2682
  4.080  11.3197
  4.077  11.3712
  4.074  11.4021
  4.070  11.4742
  4.067  11.5875
  4.064  11.5772
  4.061  11.5772
  4.058  11.6081
  4.055  11.6802
  4.051  11.7008
  4.048  11.7111
  4.045  11.7626
  4.042  11.8244
  4.039  11.9480
  4.036  11.9583
  4.032  11.9789
  4.029  12.0613
  4.026  12.1437
  4.023  12.1540
  4.020  12.1231
  4.017  12.1437
  4.014  12.1952
  4.011  12.1746
  4.008  12.2055
  4.004  12.2467
  4.001  12.2055
  3.998  12.1231
  3.995  12.1952
  3.992  12.2673
  3.989  12.2879
  3.986  12.2673
  3.983  12.2467
  3.980  12.2570
  3.977  12.3188
  3.974  12.3085
  3.971  12.3291
  3.968  12.3497
  3.965  12.3188
  3.962  12.4115
  3.959  12.4218
  3.956  12.3703
  3.953  12.4321
  3.950  12.5145
  3.947  12.4836
  3.944  12.4630
  3.941  12.5145
  3.938  12.6072
  3.935  12.7308
  3.932  12.7102
  3.929  12.6072
  3.926  12.6587
  3.923  12.6999
  3.920  12.6896
  3.917  12.7308
  3.914  12.7720
  3.911  12.7617
  3.908  12.7514
  3.905  12.7617
  3.902  12.7720
  3.899  12.7720
  3.896  12.7102
  3.893  12.7205
  3.890  12.7617
  3.887  12.8029
  3.884  12.6896
  3.882  12.6484
  3.879  12.6072
  3.876  12.4321
  3.873  12.0613
  3.870  11.9995
  3.867  12.2776
  3.864  12.4115
  3.861  12.4939
  3.858  12.7205
  3.856  12.8647
  3.853  12.8544
  3.850  12.8029
  3.847  12.8441
  3.844  12.8441
  3.841  12.7926
  3.838  12.7926
  3.836  12.8029
  3.833  12.7308
  3.830  12.7823
  3.827  12.7926
  3.824  12.7720
  3.822  12.7617
  3.819  12.7720
  3.816  12.7102
  3.813  12.6896
  3.810  12.6587
  3.807  12.6484
  3.805  12.6999
  3.802  12.7205
  3.799  12.6793
  3.796  12.6175
  3.794  12.5660
  3.791  12.5866
  3.788  12.6381
  3.785  12.6484
  3.782  12.5145
  3.780  12.4321
  3.777  12.3909
  3.774  12.3806
  3.771  12.3703
  3.769  12.3703
  3.766  12.2467
  3.763  12.1643
  3.761  12.2261
  3.758  12.1849
  3.755  12.1128
  3.752  12.1025
  3.750  12.0098
  3.747  12.0201
  3.744  12.0613
  3.742  11.9789
  3.739  11.9068
  3.736  11.8965
  3.733  11.8656
  3.731  11.8038
  3.728  11.7111
  3.725  11.6493
  3.723  11.6596
  3.720  11.7111
  3.717  11.7317
  3.715  11.6699
  3.712  11.5051
  3.709  11.4742
  3.707  11.4948
  3.704  11.4536
  3.702  11.3506
  3.699  11.3300
  3.696  11.2476
  3.694  11.2167
  3.691  11.1858
  3.688  11.1137
  3.686  11.1549
  3.683  11.1446
  3.680  10.9798
  3.678  10.9077
  3.675  10.8768
  3.673  10.8459
  3.670  10.8253
  3.667  10.7635
  3.665  10.7017
  3.662  10.7120
  3.660  10.6090
  3.657  10.5163
  3.655  10.5575
  3.652  10.6090
  3.649  10.5781
  3.647  10.5266
  3.644  10.4236
  3.642  10.3412
  3.639  10.3000
  3.637  10.2176
  3.634  10.1661
  3.632  10.1764
  3.629  10.0734
  3.626   9.9910
  3.624  10.0425
  3.621   9.9498
  3.619   9.7541
  3.616   9.7335
  3.614   9.6717
  3.611   9.7026
  3.609   9.6408
  3.606   9.6202
  3.604   9.6820
  3.601   9.6202
  3.599   9.4657
  3.596   9.4348
  3.594   9.4863
  3.591   9.4245
  3.589   9.2597
  3.586   9.1464
  3.584   9.1464
  3.581   9.1464
  3.579   9.0846
  3.576   8.9713
  3.574   8.8786
  3.571   8.8786
  3.569   8.8580
  3.567   8.7962
  3.564   8.6726
  3.562   8.6108
  3.559   8.6108
  3.557   8.5181
  3.554   8.4151
  3.552   8.3739
  3.549   8.3224
  3.547   8.3636
  3.545   8.3739
  3.542   8.3430
  3.540   8.2503
  3.537   8.1370
  3.535   7.9928
  3.533   7.9825
  3.530   8.0237
  3.528   7.8898
  3.525   7.7353
  3.523   7.6529
  3.521   7.4984
  3.518   7.4057
  3.516   7.2924
  3.513   7.1070
  3.511   6.9319
  3.509   6.7568
  3.506   6.6538
  3.504   6.7568
  3.502   6.8289
  3.499   6.8495
  3.497   6.7980
  3.494   6.7877
  3.492   6.8186
  3.490   6.8598
  3.487   6.8392
  3.485   6.7465
  3.483   6.6950
  3.480   6.6950
  3.478   6.6126
  3.476   6.5920
  3.473   6.5508
  3.471   6.4890
  3.469   6.4890
  3.466   6.4890
  3.464   6.3654
  3.462   6.2624
  3.460   6.2212
  3.457   6.2727
  3.455   6.1697
  3.453   6.0770
  3.450   6.0255
  3.448   5.9122
  3.446   5.8401
  3.443   5.8813
  3.441   5.7680
  3.439   5.7062
  3.437   5.6650
  3.434   5.5826
  3.432   5.4796
  3.430   5.4075
  3.428   5.3354
  3.425   5.3663
  3.423   5.3560
  3.421   5.3148
  3.418   5.1912
  3.416   5.2839
  3.414   5.3354
  3.412   5.2015
  3.409   5.0779
  3.407   5.1603
  3.405   5.3045
  3.403   5.3045
  3.401   5.2118
  3.398   5.3560
  3.396   5.4796
  3.394   5.3560
  3.392   5.2736
  3.389   5.3354
  3.387   5.3148
  3.385   5.2427
  3.383   5.2118
  3.381   5.2324
  3.378   5.2015
  3.376   5.1706
  3.374   5.1912
  3.372   5.3045
  3.370   5.1912
  3.367   5.1294
  3.365   5.2015
  3.363   5.2221
  3.361   5.2427
  3.359   5.2530
  3.357   5.2118
  3.354   5.2221
  3.352   5.2015
  3.350   5.2118
  3.348   5.2015
  3.346   5.2324
  3.344   5.2839
  3.341   5.2427
  3.339   5.1603
  3.337   5.1603
  3.335   5.1088
  3.333   5.1088
  3.331   5.1706
  3.329   5.1706
  3.326   5.1294
  3.324   5.1603
  3.322   5.1500
  3.320   5.0573
  3.318   4.9646
  3.316   4.9028
  3.314   4.9131
  3.312   5.0470
  3.309   4.9646
  3.307   4.9337
  3.305   4.9337
  3.303   4.9749
  3.301   4.9749
  3.299   4.9028
  3.297   4.8204
  3.295   4.7998
  3.293   4.7689
  3.291   4.7483
  3.288   4.6659
  3.286   4.7174
  3.284   4.7380
  3.282   4.8101
  3.280   4.8410
  3.278   4.6453
  3.276   4.4908
  3.274   4.5114
  3.272   4.5320
  3.270   4.5835
  3.268   4.6659
  3.266   4.6453
  3.264   4.5835
  3.262   4.6453
  3.259   4.5217
  3.257   4.4084
  3.255   4.4290
  3.253   4.3981
  3.251   4.3260
  3.249   4.3878
  3.247   4.4084
  3.245   4.4084
  3.243   4.3466
  3.241   4.2539
  3.239   4.2230
  3.237   4.3054
  3.235   4.2024
  3.233   4.1097
  3.231   4.2024
  3.229   4.2848
  3.227   4.2333
  3.225   4.1715
  3.223   4.0582
  3.221   4.0479
  3.219   4.0891
  3.217   4.0376
  3.215   4.0891
  3.213   4.1303
  3.211   4.0273
  3.209   4.0376
  3.207   4.0273
  3.205   4.0376
  3.203   3.9861
  3.201   3.9140
  3.199   3.8625
  3.197   3.8934
  3.195   3.9243
  3.193   3.8831
  3.191   3.8316
  3.189   3.8934
  3.187   3.7904
  3.185   3.7389
  3.183   3.7492
  3.182   3.7286
  3.180   3.7492
  3.178   3.8316
  3.176   3.7904
  3.174   3.6771
  3.172   3.6153
  3.170   3.5844
  3.168   3.5020
  3.166   3.5020
  3.164   3.5432
  3.162   3.6256
  3.160   3.5844
  3.158   3.5432
  3.156   3.5226
  3.154   3.4814
  3.152   3.4505
  3.151   3.5329
  3.149   3.4505
  3.147   3.3990
  3.145   3.4814
  3.143   3.5226
  3.141   3.4814
  3.139   3.4608
  3.137   3.3887
  3.135   3.3887
  3.133   3.3784
  3.132   3.2445
  3.130   3.0694
  3.128   3.2342
  3.126   3.2239
  3.124   3.2342
  3.122   3.3166
  3.120   3.4093
  3.118   3.2651
  3.117   3.1827
  3.115   3.1827
  3.113   3.2033
  3.111   3.2857
  3.109   3.0797
  3.107   2.9870
  3.105   3.1930
  3.103   3.1312
  3.102   3.0282
  3.100   3.0385
  3.098   3.0694
  3.096   2.9870
  3.094   3.0076
  3.092   3.1724
  3.091   3.1106
  3.089   2.9046
  3.087   2.9355
  3.085   2.8943
  3.083   2.9046
  3.081   2.9355
  3.079   2.9355
  3.078   2.9458
  3.076   3.1724
  3.074   3.1827
  3.072   3.0797
  3.070   2.9149
  3.069   2.8325
  3.067   2.9561
  3.065   2.9870
  3.063   2.9046
  3.061   2.8737
  3.060   2.8943
  3.058   2.9046
  3.056   2.9046
  3.054   3.0076
  3.052   2.9767
  3.051   2.9355
  3.049   2.8325
  3.047   2.7707
  3.045   2.6986
  3.043   2.7707
  3.042   2.8325
  3.040   2.9149
  3.038   2.9355
  3.036   2.9355
  3.034   2.8840
  3.033   2.8428
  3.031   2.9252
  3.029   2.9664
  3.027   2.8737
  3.026   2.8222
  3.024   2.6883
  3.022   2.7501
  3.020   2.7707
  3.019   2.7604
  3.017   2.8119
  3.015   2.7810
  3.013   2.6986
  3.012   2.8119
  3.010   2.8428
  3.008   2.8428
  3.006   2.6986
  3.005   2.6780
  3.003   2.7398
  3.001   2.5441
  2.999   2.4411
  2.998   2.6162
  2.996   2.6162
  2.994   2.6471
  2.992   2.6677
  2.991   2.6265
  2.989   2.6677
  2.987   2.8943
  2.986   2.9252
  2.984   2.7810
  2.982   2.6265
  2.980   2.5956
  2.979   2.5956
  2.977   2.7192
  2.975   2.6368
  2.974   2.4823
  2.972   2.4102
  2.970   2.6677
  2.968   2.8428
  2.967   2.7604
  2.965   2.7295
  2.963   2.8016
  2.962   2.7707
  2.960   2.7089
  2.958   2.6162
  2.957   2.6368
  2.955   2.6059
  2.953   2.5956
  2.952   2.6265
  2.950   2.5338
  2.948   2.4411
  2.947   2.5647
  2.945   2.7192
  2.943   2.7913
  2.942   2.6368
  2.940   2.5750
  2.938   2.6368
  2.937   2.6677
  2.935   2.6265
  2.933   2.5956
  2.932   2.5544
  2.930   2.7604
  2.928   2.8943
  2.927   2.7501
  2.925   2.4720
  2.923   2.6059
  2.922   2.7398
  2.920   2.7089
  2.918   2.6368
  2.917   2.7192
  2.915   2.6883
  2.913   2.7295
  2.912   2.6780
  2.910   2.6265
  2.909   2.6265
  2.907   2.7192
  2.905   2.8325
  2.904   2.8222
  2.902   2.6265
  2.900   2.5647
  2.899   2.6059
  2.897   2.6471
  2.896   2.7192
  2.894   2.8119
  2.892   2.8531
  2.891   2.8222
  2.889   2.9046
  2.887   3.0385
  2.886   2.9664
  2.884   3.0900
  2.883   3.0282
  2.881   3.1621
  2.879   3.2548
  2.878   3.2857
  2.876   3.3475
  2.875   3.3887
  2.873   3.5020
  2.871   3.8522
  2.870   4.1097
  2.868   4.1200
  2.867   4.2539
  2.865   4.3260
  2.864   4.0891
  2.862   3.8728
  2.860   3.5020
  2.859   3.1621
  2.857   3.0488
  2.856   3.0385
  2.854   2.8325
  2.853   2.8222
  2.851   2.9252
  2.849   3.0282
  2.848   2.8943
  2.846   2.9252
  2.845   3.1518
  2.843   3.3372
  2.842   3.2754
  2.840   3.3166
  2.838   3.2857
  2.837   2.9252
  2.835   2.6677
  2.834   2.7604
  2.832   2.7707
  2.831   2.8531
  2.829   2.5750
  2.828   2.4411
  2.826   2.4926
  2.825   2.6162
  2.823   2.7501
  2.821   2.8531
  2.820   2.6471
  2.818   2.6059
  2.817   2.6883
  2.815   2.6780
  2.814   2.6883
  2.812   2.8222
  2.811   2.9355
  2.809   2.8737
  2.808   2.8840
  2.806   3.0179
  2.805   2.7707
  2.803   2.8634
  2.802   3.1106
  2.800   3.1621
  2.799   3.0076
  2.797   2.9458
  2.796   2.9870
  2.794   2.9458
  2.793   2.7810
  2.791   3.0488
  2.790   3.2136
  2.788   3.1827
  2.787   3.2033
  2.785   3.1415
  2.784   2.9664
  2.782   3.1003
  2.781   3.1724
  2.779   3.2548
  2.778   3.1621
  2.776   3.1106
  2.775   3.2445
  2.773   3.3784
  2.772   3.3475
  2.770   3.4505
  2.769   3.4196
  2.767   3.3372
  2.766   3.3578
  2.764   3.5329
  2.763   3.5432
  2.761   3.6874
  2.760   3.5226
  2.758   3.2342
  2.757   3.5432
  2.756   3.8728
  2.754   3.8213
  2.753   3.7183
  2.751   3.5329
  2.750   3.6256
  2.748   3.8110
  2.747   4.0067
  2.745   3.9861
  2.744   3.9552
  2.742   4.0582
  2.741   4.2127
  2.740   4.2127
  2.738   4.1612
  2.737   4.2127
  2.735   4.3672
  2.734   4.1921
  2.732   4.1612
  2.731   4.3569
  2.729   4.5835
  2.728   4.5629
  2.727   4.6041
  2.725   4.7277
  2.724   4.5732
  2.722   4.3672
  2.721   4.1921
  2.719   4.0067
  2.718   4.3569
  2.717   4.9543
  2.715   5.3766
  2.714   5.6753
  2.712   6.0049
  2.711   6.0873
  2.709   6.1491
  2.708   6.1182
  2.707   6.2212
  2.705   6.5096
  2.704   6.6847
  2.702   6.8804
  2.701   7.5396
  2.700   7.9516
  2.698   8.3018
  2.697   8.8477
  2.695   9.2494
  2.694   9.6820
  2.693  10.2176
  2.691  10.5987
  2.690  10.9901
  2.688  11.3712
  2.687  11.8965
  2.686  12.2364
  2.684  12.4424
  2.683  12.8235
  2.681  13.1119
  2.680  13.4209
  2.679  13.6887
  2.677  13.7711
  2.676  14.2346
  2.675  14.5127
  2.673  14.8011
  2.672  15.3779
  2.670  16.1401
  2.669  16.5006
  2.668  16.6139
  2.666  17.0877
  2.665  17.4894
  2.664  17.5409
  2.662  17.8602
  2.661  18.1383
  2.659  18.3237
  2.658  18.3752
  2.657  18.6430
  2.655  18.9932
  2.654  19.4567
  2.653  19.7348
  2.651  20.0129
  2.650  20.3013
  2.649  20.5897
  2.647  21.1562
  2.646  21.6815
  2.645  21.5785
  2.643  21.6506
  2.642  21.8875
  2.640  21.7639
  2.639  21.5476
  2.638  21.7021
  2.636  21.8154
  2.635  21.7227
  2.634  21.7021
  2.632  21.6197
  2.631  21.7536
  2.630  22.1038
  2.628  21.8772
  2.627  21.8154
  2.626  21.8051
  2.624  21.7021
  2.623  21.6197
  2.622  21.7742
  2.620  21.9699
  2.619  21.9493
  2.618  21.9081
  2.617  21.9699
  2.615  21.7124
  2.614  21.5682
  2.613  21.3416
  2.611  21.3004
  2.610  21.3519
  2.609  21.3416
  2.607  21.3622
  2.606  21.6197
  2.605  21.6094
  2.603  21.6403
  2.602  21.6300
  2.601  21.5991
  2.599  21.6918
  2.598  21.7536
  2.597  21.6815
  2.596  21.9493
  2.594  21.7433
  2.593  21.0120
  2.592  20.7648
  2.590  20.6618
  2.589  20.5176
  2.588  20.5794
  2.586  20.4867
  2.585  20.4764
  2.584  20.2292
  2.583  20.3219
  2.581  20.3940
  2.580  20.5588
  2.579  20.5073
  2.577  20.4661
  2.576  20.3734
  2.575  20.4970
  2.574  20.6927
  2.572  20.6515
  2.571  20.5691
  2.570  20.6618
  2.569  20.8884
  2.567  20.9296
  2.566  20.7648
  2.565  20.6515
  2.563  20.7545
  2.562  20.9090
  2.561  20.6618
  2.560  20.5691
  2.558  20.6927
  2.557  20.8369
  2.556  21.0120
  2.555  21.1150
  2.553  21.0429
  2.552  21.2798
  2.551  21.4343
  2.550  21.5270
  2.548  21.3828
  2.547  21.3004
  2.546  21.1150
  2.545  21.0017
  2.543  20.8060
  2.542  20.9296
  2.541  21.1974
  2.540  20.6515
  2.538  20.2807
  2.537  20.3116
  2.536  20.2498
  2.535  20.2189
  2.533  20.4867
  2.532  20.3116
  2.531  19.7760
  2.530  20.1159
  2.528  20.1983
  2.527  19.8687
  2.526  19.4052
  2.525  19.0756
  2.524  18.7357
  2.522  18.3855
  2.521  18.0147
  2.520  17.7881
  2.519  17.4894
  2.517  17.2216
  2.516  17.2319
  2.515  17.4173
  2.514  17.4070
  2.513  17.4791
  2.511  17.2937
  2.510  17.2216
  2.509  17.3761
  2.508  17.6542
  2.506  17.8190
  2.505  18.1898
  2.504  18.4370
  2.503  18.8902
  2.502  19.2816
  2.500  19.6936
  2.500  19.6936
  2.496  20.1933
  2.492  20.4850
  2.488  20.8542
  2.484  20.9879
  2.480  21.4076
  2.476  21.1280
  2.472  21.0369
  2.468  20.9030
  2.464  21.3583
  2.460  21.3835
  2.456  22.3351
  2.452  22.2748
  2.448  22.4806
  2.444  22.4218
  2.440  21.9324
  2.436  21.5589
  2.432  22.1348
  2.428  22.6826
  2.424  23.2498
  2.420  23.7051
  2.416  24.1614
  2.412  24.5978
  2.408  25.0498
  2.404  25.6059
  2.400  25.8171
  2.396  26.0992
  2.392  27.1692
  2.388  27.8219
  2.384  28.6372
  2.380  30.0124
  2.376  31.2215
  2.372  32.2027
  2.368  32.7162
  2.364  33.2468
  2.360  33.9586
  2.356  33.9035
  2.352  33.9481
  2.348  33.2655
  2.344  33.1583
  2.340  32.5070
  2.336  31.6200
  2.332  30.8042
  2.328  30.1277
  2.324  29.5776
  2.320  29.4553
  2.316  30.1508
  2.312  31.1460
  2.308  32.4042
  2.304  33.5005
  2.300  34.1069
  2.296  34.7149
  2.292  35.0303
  2.288  35.2336
  2.284  35.3202
  2.280  35.5562
  2.276  35.5199
  2.272  35.5692
  2.268  35.7051
  2.264  35.7192
  2.260  35.7181
  2.256  35.7373
  2.252  35.5300
  2.248  35.4932
  2.244  35.3475
  2.240  35.0565
  2.236  34.6671
  2.232  34.0105
  2.228  32.9459
  2.224  31.7196
  2.220  30.3620
  2.216  29.0940
  2.212  28.4714
  2.208  28.3793
  2.204  28.5273
  2.200  28.6516
  2.196  28.3381
  2.192  27.8023
  2.188  27.1255
  2.184  26.5869
  2.180  26.3130
  2.176  26.2628
  2.172  26.2917
  2.168  26.3475
  2.164  26.3696
  2.160  26.5247
  2.156  26.8304
  2.152  27.3337
  2.148  27.8509
  2.144  28.2788
  2.140  28.7125
  2.136  29.2342
  2.132  29.8604
  2.128  30.5076
  2.124  31.2790
  2.120  32.1199
  2.116  32.8647
  2.112  33.6079
  2.108  34.2528
  2.104  34.7157
  2.100  35.1416
  2.096  35.5071
  2.092  35.7910
  2.088  35.9762
  2.084  36.0726
  2.080  36.1061
  2.076  36.1053
  2.072  36.0904
  2.068  36.0782
  2.064  36.1435
  2.060  36.1879
  2.056  36.2502
  2.052  36.3223
  2.048  36.4731
  2.044  36.5679
  2.040  36.6292
  2.036  36.6845
  2.032  36.7310
  2.028  36.6922
  2.024  36.5854
  2.020  36.4945
  2.016  36.3870
  2.012  36.2690
  2.008  36.2034
  2.004  36.2088
  2.000  36.2357
  1.996  36.2515
  1.992  36.2236
  1.988  36.1428
  1.984  36.0138
  1.980  35.8154
  1.976  35.5708
  1.972  35.3444
  1.968  35.1235
  1.964  34.8512
  1.960  34.6022
  1.956  34.4237
  1.952  34.2974
  1.948  34.1436
  1.944  33.9740
  1.940  33.8110
  1.936  33.5678
  1.932  33.2829
  1.928  33.1033
  1.924  32.9737
  1.920  32.8114
  1.916  32.7396
  1.912  32.8372
  1.908  33.1300
  1.904  33.7215
  1.900  34.6875
  1.896  35.8954
  1.892  37.1576
  1.888  38.5309
  1.884  39.9811
  1.880  41.4111
  1.876  42.8485
  1.872  44.1225
  1.868  45.1043
  1.864  45.8345
  1.860  46.3768
  1.856  46.7910
  1.852  47.1008
  1.848  47.3230
  1.844  47.4692
  1.840  47.5743
  1.836  47.6436
  1.832  47.6707
  1.828  47.7081
  1.824  47.7032
  1.820  47.6503
  1.816  47.5639
  1.812  47.4929
  1.808  47.3793
  1.804  47.1680
  1.800  46.8634
  1.796  46.3962
  1.792  45.7569
  1.788  45.0433
  1.784  44.3594
  1.780  43.7230
  1.776  43.1758
  1.772  42.7633
  1.768  42.5656
  1.764  42.6402
  1.760  42.9169
  1.756  43.2733
  1.752  43.7532
  1.748  44.3513
  1.744  44.9683
  1.740  45.6005
  1.736  46.2473
  1.732  46.8042
  1.728  47.3200
  1.724  47.8152
  1.720  48.1945
  1.716  48.4891
  1.712  48.7129
  1.708  48.8742
  1.704  49.0257
  1.700  49.1366
  1.696  49.2309
  1.692  49.3151
  1.688  49.4023
  1.684  49.4806
  1.680  49.5325
  1.676  49.6091
  1.672  49.7290
  1.668  49.7941
  1.664  49.8491
  1.660  49.8948
  1.656  49.8989
  1.652  49.9137
  1.648  49.9104
  1.644  49.9149
  1.640  49.9360
  1.636  49.9323
  1.632  49.9078
  1.628  49.9182
  1.624  49.8311
  1.620  49.7852
  1.616  49.8041
  1.612  49.7316
  1.608  49.6891
  1.604  49.6575
  1.600  49.5644
  1.596  49.4882
  1.592  49.4967
  1.588  49.4765
  1.584  49.3835
  1.580  49.2792
  1.576  49.2802
  1.572  49.2518
  1.568  49.1668
  1.564  49.0190
  1.560  48.9594
  1.556  48.9041
  1.552  48.7802
  1.548  48.5863
  1.544  48.4393
  1.540  48.3230
  1.536  48.1150
  1.532  47.8854
  1.528  47.7627
  1.524  47.5739
  1.520  47.2461
  1.516  47.0007
  1.512  46.5573
  1.508  46.0283
  1.504  45.3545
  1.500  44.8306
  1.496  44.3188
  1.492  43.6237
  1.488  42.1537
  1.484  39.7369
  1.480  37.5454
  1.476  37.4250
  1.472  39.0184
  1.468  40.5429
  1.464  41.1967
  1.460  41.4010
  1.456  41.6753
  1.452  42.0616
  1.448  42.4499
  1.444  42.6054
  1.440  42.2190
  1.436  41.2308
  1.432  39.9656
  1.428  39.3353
  1.424  40.1294
  1.420  41.8835
  1.416  43.2438
  1.412  43.8524
  1.408  44.2767
  1.404  44.8526
  1.400  45.4641
  1.396  46.1494
  1.392  46.7622
  1.388  47.5668
  1.384  48.3619
  1.380  49.1027
  1.376  49.7450
  1.372  50.3258
  1.368  50.7322
  1.364  50.9173
  1.360  51.0047
  1.356  51.0919
  1.352  51.2395
  1.348  51.4449
  1.344  51.5674
  1.340  51.6710
  1.336  51.8572
  1.332  52.1392
  1.328  52.3865
  1.324  52.5812
  1.320  52.7081
  1.316  52.8600
  1.312  53.0184
  1.308  53.1685
  1.304  53.2174
  1.300  53.2208
  1.296  53.1529
  1.292  53.0671
  1.288  52.8892
  1.284  52.6975
  1.280  52.3480
  1.276  51.8992
  1.272  51.6716
  1.268  51.5367
  1.264  51.6225
  1.260  51.8339
  1.256  52.2001
  1.252  52.2772
  1.248  52.2951
  1.244  52.3292
  1.240  52.3783
  1.236  52.3896
  1.232  52.4307
  1.228  52.4550
  1.224  52.4554
  1.220  52.5485
  1.216  52.6300
  1.212  52.5649
  1.208  52.4654
  1.204  52.4660
  1.200  52.4714
  1.196  52.4289
  1.192  52.3663
  1.188  52.3297
  1.184  52.2469
  1.180  52.2228
  1.176  52.1648
  1.172  52.1091
  1.168  52.0311
  1.164  52.0179
  1.160  51.9312
  1.156  51.8689
  1.152  51.8473
  1.148  51.8238
  1.144  51.8405
  1.140  51.9319
  1.136  51.9665
  1.132  52.0250
  1.128  52.0004
  1.124  51.9584
  1.120  51.9354
  1.116  51.8398
  1.112  51.7914
  1.108  51.7070
  1.104  51.7484
  1.100  51.6812
  1.096  51.5874
  1.092  51.5307
  1.088  51.4612
  1.084  51.4091
  1.080  51.3092
  1.076  51.2822
  1.072  51.1988
  1.068  51.1134
  1.064  51.0069
  1.060  50.9634
  1.056  50.9196
  1.052  50.8130
  1.048  50.6767
  1.044  50.5756
  1.040  50.4990
  1.036  50.4708
  1.032  50.3155
  1.028  50.1530
  1.024  49.9719
  1.020  49.7874
  1.016  49.5941
  1.012  49.4040
  1.008  49.2722
  1.004  49.1780
  1.000  49.0760
  0.996  48.9793
  0.992  48.8974
  0.988  48.8763
  0.984  48.8279
  0.980  48.7476
  0.976  48.7176
  0.972  48.6759
  0.968  48.6093
  0.964  48.5456
  0.960  48.5383
  0.956  48.5098
  0.952  48.4284
  0.948  48.4001
  0.944  48.3437
  0.940  48.2790
  0.936  48.2166
  0.932  48.1271
  0.928  47.9764
  0.924  47.8782
  0.920  47.8301
  0.916  47.9037
  0.912  47.9534
  0.908  47.8801
  0.904  47.8099
  0.900  47.7767
  0.896  47.7525
  0.892  47.7435
  0.888  47.6797
  0.884  47.5962
  0.880  47.5993
  0.876  47.5037
  0.872  47.4292
  0.868  47.3509
  0.864  47.3222
  0.860  47.3063
  0.856  47.6611
  0.852  48.5352
  0.848  48.6140
  0.844  48.5777
  0.840  48.3114
  0.836  48.1847
  0.832  48.1741
  0.828  48.1962
  0.824  47.9964
  0.820  47.9572
  0.816  47.9986
  0.812  47.8545
  0.808  47.9373
  0.804  47.8124
  0.800  47.7272
  0.796  47.6358
  0.792  47.5462
  0.788  47.4635
  0.784  47.3520
  0.780  47.2978
  0.776  47.1585
  0.772  46.9805
  0.768  46.9869
  0.764  46.9054
  0.760  46.8327
  0.756  46.6894
  0.752  46.5811
  0.748  46.4639
  0.744  46.3182
  0.740  46.2509
  0.736  46.1531
  0.732  46.0086
  0.728  45.8692
  0.724  45.7478
  0.720  45.6304
  0.716  45.5214
  0.712  45.4488
  0.708  45.2707
  0.704  45.1453
  0.700  45.0265
  0.696  44.9008
  0.692  44.8103
  0.688  44.6918
  0.684  44.5391
  0.680  44.3872
  0.676  44.2315
  0.672  44.1031
  0.668  43.9339
  0.664  43.7447
  0.660  43.5956
  0.656  43.4535
  0.652  43.2811
  0.648  43.1218
  0.644  42.9595
  0.640  42.7904
  0.636  42.6371
  0.632  42.4908
  0.628  42.2889
  0.624  42.1319
  0.620  41.9758
  0.616  41.7959
  0.612  41.6020
  0.608  41.3683
  0.604  41.1255
  0.600  40.8909
  0.596  40.6285
  0.592  40.3336
  0.588  40.0221
  0.584  39.7065
  0.580  39.3556
  0.576  38.9176
  0.572  38.4647
  0.568  38.0429
  0.564  37.5884
  0.560  37.0921
  0.556  36.5907
  0.552  36.1163
  0.548  35.6570
  0.544  35.2097
  0.540  34.7752
  0.536  34.3290
  0.532  33.9244
  0.528  33.5454
  0.524  33.1696
  0.520  32.8067
  0.516  32.4487
  0.512  32.1133
  0.508  31.7699
  0.504  31.4353
  0.500  31.0986
  0.496  30.7461
  0.492  30.3916
  0.488  30.0499
  0.484  29.7472
  0.480  29.4902
  0.476  29.2914
  0.472  29.0932
  0.468  28.8775
  0.464  28.6791
  0.460  28.4690
  0.456  28.1907
  0.452  27.8618
  0.448  27.5059
  0.444  27.0761
  0.440  26.6095
  0.436  26.0663
  0.432  25.5356
  0.428  25.1989
  0.424  24.9070
  0.420  24.5538
  0.416  24.1936
  0.412  23.8279
  0.408  23.4736
  0.404  23.0578
  0.400  22.6169
