Name: Altered volcanic tuff
Type: Rock
Class: Igneous
Subclass: Felsic
Particle Size: Whole rock chips
Sample No.: Cup6
Owner: USGS
Wavelength range: 0.40 - 14.05 um
Origin: Cuprite, Nevada

Description: Altered volcanic tuff, white





Measurement: Directional Hemispherical Reflectance
First Column: X
Second Column: Y
X Units: Wavelength (micrometers)
Y Units: Reflectance (percent)
First X Value: 14.05105
Last X Value: 0.40000
Number of X Values: 2756
Additional Information: None

 14.051   2.1733
 14.013   2.2557
 13.975   2.2969
 13.938   2.3484
 13.900   2.5544
 13.863   2.5853
 13.826   2.6883
 13.790   2.5235
 13.753   2.5956
 13.717   2.6883
 13.680   2.8119
 13.644   2.7501
 13.609   2.7604
 13.573   2.7707
 13.538   2.8222
 13.502   2.7604
 13.467   2.9149
 13.432   3.0591
 13.398   3.1621
 13.363   3.1415
 13.329   3.2342
 13.295   3.2136
 13.261   3.2857
 13.227   3.2033
 13.193   3.2033
 13.160   3.3475
 13.126   3.5226
 13.093   3.5741
 13.060   3.6977
 13.027   3.7904
 12.995   3.9655
 12.962   4.1612
 12.930   4.4187
 12.898   4.6247
 12.866   5.0161
 12.834   5.3148
 12.802   5.4281
 12.771   5.2530
 12.739   5.0985
 12.708   4.7792
 12.677   4.4393
 12.646   4.1303
 12.616   4.1303
 12.585   4.3363
 12.554   4.7071
 12.524   4.9646
 12.494   5.1191
 12.464   5.1294
 12.434   4.9440
 12.404   4.3878
 12.375   3.6050
 12.345   2.5544
 12.316   1.8334
 12.287   1.5759
 12.258   1.6068
 12.229   1.5862
 12.200   1.6171
 12.171   1.6686
 12.143   1.8025
 12.115   1.8952
 12.086   2.0085
 12.058   1.9879
 12.030   2.1527
 12.002   2.2042
 11.975   2.2969
 11.947   2.4308
 11.920   2.5132
 11.892   2.5441
 11.865   2.6368
 11.838   2.5750
 11.811   2.6574
 11.784   2.8222
 11.757   2.9458
 11.731   2.9252
 11.704   2.9458
 11.678   2.9870
 11.652   3.0694
 11.626   3.0488
 11.600   3.1312
 11.574   3.1106
 11.548   3.1518
 11.522   3.2033
 11.497   3.2857
 11.471   3.3269
 11.446   3.3578
 11.421   3.2857
 11.396   3.2754
 11.371   3.2960
 11.346   3.4093
 11.321   3.4608
 11.297   3.5947
 11.272   3.6153
 11.248   3.6050
 11.223   3.5329
 11.199   3.6050
 11.175   3.6771
 11.151   3.7286
 11.127   3.6462
 11.103   3.7389
 11.079   3.7492
 11.056   3.7183
 11.032   3.7389
 11.009   3.8728
 10.985   3.8110
 10.962   3.8213
 10.939   3.8316
 10.916   3.8625
 10.893   3.9037
 10.870   3.9449
 10.848   3.9243
 10.825   3.9552
 10.802   3.9552
 10.780   3.9243
 10.758   3.9037
 10.735   4.0685
 10.713   4.1612
 10.691   4.1200
 10.669   4.0479
 10.647   4.1509
 10.625   4.2127
 10.604   4.2436
 10.582   4.1715
 10.560   4.2745
 10.539   4.2951
 10.518   4.3672
 10.496   4.4702
 10.475   4.4496
 10.454   4.3981
 10.433   4.4393
 10.412   4.4496
 10.391   4.5526
 10.370   4.6659
 10.350   4.7792
 10.329   4.7998
 10.309   4.8204
 10.288   4.8410
 10.268   4.9440
 10.247   4.9646
 10.227   5.0058
 10.207   4.9646
 10.187   5.1706
 10.167   5.2633
 10.147   5.2530
 10.127   5.2736
 10.108   5.3972
 10.088   5.4796
 10.068   5.5311
 10.049   5.5414
 10.029   5.6547
 10.010   5.7371
  9.991   5.8504
  9.972   5.9740
  9.952   6.1388
  9.933   6.1697
  9.914   6.2830
  9.895   6.3654
  9.877   6.4169
  9.858   6.5508
  9.839   6.7465
  9.821   6.7568
  9.802   6.9525
  9.783   7.1173
  9.765   7.1997
  9.747   7.2615
  9.728   7.4469
  9.710   7.5705
  9.692   7.6426
  9.674   7.7456
  9.656   7.9619
  9.638   8.1988
  9.620   8.4254
  9.602   8.5799
  9.585   8.7241
  9.567   8.8065
  9.549   9.0434
  9.532   9.3318
  9.514   9.6202
  9.497   9.7953
  9.479  10.1455
  9.462  10.6296
  9.445  11.2682
  9.428  11.8759
  9.411  12.7514
  9.394  13.7814
  9.377  14.9350
  9.360  16.1092
  9.343  17.2422
  9.326  18.2516
  9.309  19.0962
  9.293  19.5906
  9.276  19.8584
  9.259  19.9511
  9.243  19.9717
  9.226  19.8790
  9.210  19.7451
  9.194  19.5700
  9.178  19.4670
  9.161  19.3022
  9.145  19.1786
  9.129  18.9417
  9.113  18.7151
  9.097  18.4988
  9.081  18.3443
  9.065  18.1383
  9.049  18.0662
  9.034  17.9735
  9.018  17.8087
  9.002  17.5203
  8.987  17.3864
  8.971  17.2834
  8.956  17.1907
  8.940  17.0568
  8.925  16.9950
  8.909  16.9126
  8.894  16.7993
  8.879  16.6242
  8.864  16.5727
  8.849  16.5109
  8.834  16.4388
  8.819  16.3152
  8.804  16.2637
  8.789  16.1813
  8.774  16.0474
  8.759  15.8826
  8.744  15.7796
  8.730  15.6560
  8.715  15.6148
  8.700  15.4191
  8.686  15.0998
  8.671  14.5127
  8.657  13.7814
  8.642  12.7720
  8.628  11.6390
  8.614  11.0210
  8.599  11.5669
  8.585  12.8029
  8.571  14.0698
  8.557  15.0586
  8.543  15.7899
  8.529  16.2431
  8.515  16.6139
  8.501  16.8920
  8.487  17.0877
  8.473  17.1907
  8.459  17.3246
  8.445  17.4379
  8.431  17.6336
  8.418  17.7160
  8.404  17.7675
  8.391  17.9117
  8.377  18.1280
  8.363  18.4164
  8.350  18.7151
  8.337  18.9623
  8.323  19.2507
  8.310  19.5597
  8.297  19.8584
  8.283  20.0438
  8.270  20.3219
  8.257  20.6206
  8.244  20.8369
  8.231  20.9090
  8.218  20.9811
  8.205  21.0326
  8.192  20.9605
  8.179  20.7751
  8.166  20.4249
  8.153  19.8584
  8.140  19.0962
  8.128  18.0765
  8.115  17.0465
  8.102  16.0062
  8.090  14.9350
  8.077  13.9359
  8.064  13.0089
  8.052  12.1437
  8.039  11.3609
  8.027  10.5678
  8.015   9.9086
  8.002   9.3009
  7.990   8.7653
  7.978   8.1885
  7.965   7.6838
  7.953   7.1276
  7.941   6.5920
  7.929   6.0667
  7.917   5.6444
  7.905   5.2118
  7.893   4.7586
  7.881   4.3878
  7.869   4.1200
  7.857   3.7698
  7.845   3.4917
  7.833   3.3063
  7.821   3.1415
  7.809   2.9252
  7.798   2.7604
  7.786   2.5956
  7.774   2.4411
  7.763   2.2866
  7.751   2.1836
  7.739   2.0703
  7.728   1.9570
  7.716   1.8437
  7.705   1.7819
  7.694   1.6789
  7.682   1.5759
  7.671   1.4832
  7.659   1.3905
  7.648   1.2875
  7.637   1.2154
  7.626   1.1948
  7.614   1.1742
  7.603   1.1124
  7.592   1.0815
  7.581   0.9991
  7.570   0.9270
  7.559   0.8446
  7.548   0.8858
  7.537   0.9064
  7.526   0.8961
  7.515   0.8343
  7.504   0.8240
  7.493   0.8034
  7.483   0.8137
  7.472   0.7931
  7.461   0.8137
  7.450   0.7622
  7.440   0.7828
  7.429   0.7828
  7.418   0.7622
  7.408   0.7519
  7.397   0.7622
  7.387   0.7313
  7.376   0.7622
  7.366   0.7416
  7.355   0.7004
  7.345   0.7828
  7.334   0.8652
  7.324   0.8034
  7.314   0.7622
  7.303   0.7313
  7.293   0.7313
  7.283   0.7107
  7.273   0.7416
  7.263   0.7416
  7.252   0.8034
  7.242   0.8240
  7.232   0.8446
  7.222   0.8652
  7.212   0.8446
  7.202   0.8137
  7.192   0.7931
  7.182   0.7725
  7.172   0.8446
  7.162   0.8652
  7.152   0.8755
  7.143   0.8549
  7.133   0.8755
  7.123   0.8858
  7.113   0.9064
  7.103   0.9064
  7.094   0.9373
  7.084   0.9064
  7.074   0.9270
  7.065   0.9476
  7.055   0.9682
  7.046   0.9064
  7.036   0.8858
  7.026   0.8652
  7.017   0.9167
  7.007   0.9064
  6.998   0.9064
  6.989   0.9373
  6.979   0.9682
  6.970   0.9785
  6.960   1.0403
  6.951   1.0094
  6.942   0.9682
  6.932   1.0197
  6.923   1.0506
  6.914   1.0094
  6.905   1.0094
  6.896   1.0403
  6.886   1.0300
  6.877   0.9682
  6.868   0.9373
  6.859   0.9991
  6.850   1.0712
  6.841   1.0403
  6.832   1.0300
  6.823   1.0609
  6.814   1.0918
  6.805   1.0609
  6.796   1.0815
  6.787   1.0506
  6.778   1.0506
  6.770   1.1124
  6.761   1.1021
  6.752   1.0712
  6.743   1.1742
  6.734   1.2257
  6.726   1.2051
  6.717   1.2257
  6.708   1.2257
  6.700   1.2154
  6.691   1.2463
  6.682   1.2463
  6.674   1.3081
  6.665   1.3081
  6.657   1.3287
  6.648   1.3493
  6.640   1.3596
  6.631   1.3699
  6.623   1.3699
  6.614   1.3287
  6.606   1.3287
  6.597   1.2978
  6.589   1.2772
  6.581   1.3184
  6.572   1.3596
  6.564   1.3493
  6.556   1.3802
  6.547   1.3905
  6.539   1.3699
  6.531   1.3184
  6.523   1.3905
  6.514   1.4626
  6.506   1.4626
  6.498   1.4317
  6.490   1.4523
  6.482   1.4729
  6.474   1.5244
  6.466   1.5656
  6.458   1.4626
  6.450   1.4420
  6.442   1.4935
  6.434   1.5244
  6.426   1.5965
  6.418   1.6274
  6.410   1.6171
  6.402   1.5759
  6.394   1.5656
  6.386   1.5759
  6.378   1.5553
  6.370   1.5347
  6.363   1.5553
  6.355   1.5141
  6.347   1.4420
  6.339   1.4420
  6.332   1.4626
  6.324   1.4111
  6.316   1.4420
  6.308   1.4420
  6.301   1.4420
  6.293   1.4008
  6.286   1.4317
  6.278   1.4008
  6.270   1.3699
  6.263   1.4008
  6.255   1.4626
  6.248   1.4317
  6.240   1.4317
  6.233   1.4626
  6.225   1.4626
  6.218   1.3802
  6.210   1.4008
  6.203   1.4214
  6.195   1.4008
  6.188   1.3699
  6.181   1.4626
  6.173   1.4523
  6.166   1.3802
  6.159   1.3699
  6.151   1.3493
  6.144   1.3493
  6.137   1.3905
  6.130   1.3905
  6.122   1.4214
  6.115   1.4420
  6.108   1.4317
  6.101   1.4214
  6.094   1.4420
  6.086   1.4729
  6.079   1.4729
  6.072   1.5038
  6.065   1.4935
  6.058   1.4626
  6.051   1.4729
  6.044   1.5038
  6.037   1.4832
  6.030   1.4832
  6.023   1.4935
  6.016   1.4832
  6.009   1.5141
  6.002   1.5141
  5.995   1.4832
  5.988   1.5244
  5.981   1.5759
  5.974   1.4729
  5.967   1.4111
  5.960   1.4626
  5.954   1.5553
  5.947   1.5965
  5.940   1.6274
  5.933   1.5862
  5.926   1.6068
  5.920   1.5656
  5.913   1.5759
  5.906   1.5965
  5.899   1.6480
  5.893   1.7201
  5.886   1.7922
  5.879   1.8128
  5.873   1.7510
  5.866   1.7304
  5.859   1.7922
  5.853   1.8128
  5.846   1.8025
  5.840   1.8128
  5.833   1.8746
  5.827   1.8746
  5.820   1.9261
  5.813   1.9364
  5.807   1.9364
  5.800   1.9261
  5.794   1.9158
  5.788   1.8952
  5.781   1.9158
  5.775   1.8952
  5.768   1.9055
  5.762   1.9364
  5.755   2.0291
  5.749   2.0085
  5.743   1.9364
  5.736   1.9055
  5.730   1.9364
  5.724   2.0085
  5.717   2.0497
  5.711   2.0909
  5.705   2.2042
  5.698   2.2248
  5.692   2.1836
  5.686   2.1939
  5.680   2.2248
  5.674   2.2351
  5.667   2.2969
  5.661   2.2660
  5.655   2.2351
  5.649   2.2248
  5.643   2.2145
  5.637   2.2042
  5.630   2.2145
  5.624   2.2351
  5.618   2.2454
  5.612   2.2042
  5.606   2.2145
  5.600   2.2248
  5.594   2.2145
  5.588   2.2248
  5.582   2.2248
  5.576   2.2145
  5.570   2.2145
  5.564   2.1939
  5.558   2.1836
  5.552   2.2351
  5.546   2.2866
  5.540   2.2763
  5.534   2.3072
  5.528   2.3175
  5.523   2.3175
  5.517   2.3175
  5.511   2.3484
  5.505   2.3793
  5.499   2.3896
  5.493   2.4205
  5.487   2.4514
  5.482   2.4308
  5.476   2.4102
  5.470   2.4411
  5.464   2.5132
  5.459   2.5544
  5.453   2.5132
  5.447   2.4926
  5.441   2.5029
  5.436   2.5029
  5.430   2.5235
  5.424   2.5647
  5.419   2.5750
  5.413   2.5441
  5.407   2.4823
  5.402   2.4823
  5.396   2.5235
  5.390   2.5544
  5.385   2.5235
  5.379   2.4617
  5.374   2.4308
  5.368   2.4205
  5.363   2.3690
  5.357   2.3381
  5.352   2.3587
  5.346   2.4102
  5.341   2.4205
  5.335   2.3999
  5.330   2.3690
  5.324   2.3278
  5.319   2.3896
  5.313   2.4205
  5.308   2.4205
  5.302   2.3896
  5.297   2.4102
  5.291   2.4411
  5.286   2.4411
  5.281   2.4514
  5.275   2.5132
  5.270   2.5235
  5.265   2.5338
  5.259   2.5750
  5.254   2.6265
  5.249   2.6471
  5.243   2.5853
  5.238   2.5647
  5.233   2.6059
  5.227   2.6574
  5.222   2.6883
  5.217   2.7089
  5.212   2.7604
  5.206   2.7707
  5.201   2.7810
  5.196   2.8119
  5.191   2.8325
  5.186   2.8531
  5.180   2.8840
  5.175   2.8428
  5.170   2.8222
  5.165   2.8428
  5.160   2.8531
  5.155   2.8222
  5.150   2.8737
  5.145   2.8840
  5.139   2.8531
  5.134   2.8222
  5.129   2.8119
  5.124   2.8634
  5.119   2.8943
  5.114   2.8840
  5.109   2.8634
  5.104   2.8325
  5.099   2.8325
  5.094   2.8325
  5.089   2.8531
  5.084   2.8737
  5.079   2.8840
  5.074   2.8531
  5.069   2.8634
  5.064   2.8634
  5.059   2.8531
  5.054   2.9149
  5.049   2.9664
  5.044   2.9355
  5.040   2.8943
  5.035   2.8943
  5.030   2.9149
  5.025   2.9458
  5.020   2.9355
  5.015   2.9046
  5.010   2.9149
  5.005   2.8943
  5.001   2.8634
  4.996   2.8325
  4.991   2.8325
  4.986   2.8943
  4.981   2.9561
  4.977   2.9870
  4.972   3.0076
  4.967   3.0179
  4.962   3.0488
  4.958   3.0591
  4.953   3.0694
  4.948   3.1106
  4.943   3.1415
  4.939   3.1827
  4.934   3.1621
  4.929   3.1724
  4.925   3.2445
  4.920   3.2548
  4.915   3.2445
  4.911   3.2548
  4.906   3.3063
  4.901   3.3681
  4.897   3.4093
  4.892   3.4505
  4.888   3.5123
  4.883   3.6256
  4.878   3.6771
  4.874   3.7389
  4.869   3.8419
  4.865   3.9552
  4.860   3.9964
  4.856   4.0479
  4.851   4.0994
  4.846   4.1303
  4.842   4.1715
  4.837   4.2436
  4.833   4.3363
  4.828   4.3672
  4.824   4.3878
  4.819   4.4290
  4.815   4.4599
  4.810   4.5217
  4.806   4.6144
  4.802   4.6453
  4.797   4.6453
  4.793   4.6659
  4.788   4.7174
  4.784   4.7483
  4.779   4.8101
  4.775   4.8204
  4.771   4.8204
  4.766   4.9337
  4.762   4.9749
  4.758   4.9749
  4.753   4.9852
  4.749   4.9749
  4.744   4.9852
  4.740   5.0573
  4.736   5.0882
  4.731   5.0470
  4.727   5.0058
  4.723   5.0058
  4.719   5.0058
  4.714   4.9749
  4.710   4.9955
  4.706   4.9337
  4.701   4.8616
  4.697   4.8410
  4.693   4.8616
  4.689   4.7792
  4.684   4.7174
  4.680   4.7174
  4.676   4.7071
  4.672   4.6865
  4.668   4.7380
  4.663   4.8204
  4.659   4.9028
  4.655   4.9955
  4.651   5.0779
  4.647   5.1706
  4.643   5.2530
  4.638   5.3045
  4.634   5.3560
  4.630   5.4384
  4.626   5.5208
  4.622   5.6135
  4.618   5.6753
  4.614   5.6650
  4.610   5.7165
  4.605   5.7680
  4.601   5.7989
  4.597   5.7680
  4.593   5.7680
  4.589   5.8092
  4.585   5.8195
  4.581   5.9122
  4.577   5.9431
  4.573   5.9328
  4.569   5.9328
  4.565   5.9225
  4.561   5.9225
  4.557   5.9328
  4.553   5.9431
  4.549   5.8607
  4.545   5.6959
  4.541   5.6341
  4.537   5.6341
  4.533   5.5723
  4.529   5.4899
  4.525   5.4693
  4.521   5.4178
  4.517   5.3045
  4.513   5.2015
  4.509   5.0676
  4.505   4.9131
  4.502   4.8513
  4.498   4.7998
  4.494   4.8204
  4.490   4.7792
  4.486   4.7689
  4.482   4.7895
  4.478   4.7792
  4.474   4.6865
  4.470   4.7174
  4.467   4.7792
  4.463   4.7483
  4.459   4.7380
  4.455   4.7483
  4.451   4.8204
  4.447   4.8822
  4.444   4.9131
  4.440   4.9337
  4.436   4.9646
  4.432   5.0367
  4.428   5.0470
  4.425   5.0470
  4.421   5.1088
  4.417   5.1397
  4.413   5.2118
  4.410   5.2118
  4.406   5.2015
  4.402   5.2633
  4.398   5.3766
  4.395   5.4899
  4.391   5.5002
  4.387   5.5517
  4.384   5.6547
  4.380   5.7680
  4.376   5.8607
  4.372   5.9122
  4.369   5.9740
  4.365   6.0564
  4.361   6.1594
  4.358   6.1697
  4.354   6.2418
  4.350   6.3448
  4.347   6.3963
  4.343   6.4684
  4.340   6.5508
  4.336   6.5611
  4.332   6.5302
  4.329   6.5508
  4.325   6.5920
  4.321   6.6538
  4.318   6.7465
  4.314   6.7774
  4.311   6.7362
  4.307   6.6847
  4.304   6.6538
  4.300   6.6538
  4.296   6.6332
  4.293   6.6950
  4.289   6.7671
  4.286   6.8289
  4.282   6.8907
  4.279   6.8907
  4.275   6.8289
  4.272   6.8907
  4.268   6.9113
  4.265   6.9113
  4.261   6.9937
  4.258   7.0349
  4.254   7.0040
  4.251   7.0761
  4.247   7.0864
  4.244   7.1173
  4.240   7.1482
  4.237   7.1276
  4.233   7.1379
  4.230   7.2100
  4.226   7.3439
  4.223   7.4160
  4.219   7.3851
  4.216   7.3336
  4.213   7.3027
  4.209   7.3027
  4.206   7.2924
  4.202   7.2821
  4.199   7.3130
  4.196   7.3027
  4.192   7.3130
  4.189   7.3851
  4.185   7.4572
  4.182   7.5190
  4.179   7.4881
  4.175   7.5190
  4.172   7.6014
  4.169   7.5602
  4.165   7.6220
  4.162   7.7662
  4.159   7.7971
  4.155   7.7765
  4.152   7.8074
  4.149   7.8898
  4.145   7.8795
  4.142   7.8692
  4.139   7.9516
  4.135   7.9928
  4.132   8.0546
  4.129   8.0546
  4.126   8.0546
  4.122   8.1885
  4.119   8.3018
  4.116   8.3430
  4.112   8.3636
  4.109   8.3636
  4.106   8.4151
  4.103   8.4563
  4.099   8.5593
  4.096   8.5799
  4.093   8.5902
  4.090   8.6211
  4.086   8.6108
  4.083   8.7962
  4.080   8.8992
  4.077   8.8683
  4.074   8.8477
  4.070   8.8580
  4.067   8.8580
  4.064   8.9095
  4.061   8.8786
  4.058   8.8168
  4.055   8.7962
  4.051   8.8271
  4.048   8.8271
  4.045   8.8374
  4.042   8.8271
  4.039   8.7447
  4.036   8.6829
  4.032   8.6314
  4.029   8.5593
  4.026   8.5181
  4.023   8.4769
  4.020   8.4254
  4.017   8.3430
  4.014   8.3636
  4.011   8.3018
  4.008   8.1576
  4.004   8.1267
  4.001   8.1473
  3.998   8.0237
  3.995   8.0031
  3.992   8.0340
  3.989   7.8589
  3.986   7.7353
  3.983   7.7971
  3.980   7.8795
  3.977   7.9722
  3.974   7.9310
  3.971   7.9310
  3.968   7.9207
  3.965   7.9104
  3.962   7.9619
  3.959   8.1061
  3.956   8.3121
  3.953   8.4048
  3.950   8.3430
  3.947   8.3224
  3.944   8.4460
  3.941   8.6108
  3.938   8.6932
  3.935   8.6932
  3.932   8.7344
  3.929   8.8374
  3.926   8.8580
  3.923   8.9301
  3.920   8.9816
  3.917   8.9713
  3.914   8.9610
  3.911   8.9919
  3.908   8.9816
  3.905   8.9404
  3.902   8.9095
  3.899   8.9507
  3.896   8.9610
  3.893   8.8786
  3.890   8.8992
  3.887   8.9610
  3.884   8.9713
  3.882   8.9404
  3.879   8.8580
  3.876   8.7756
  3.873   8.7550
  3.870   8.8065
  3.867   8.7653
  3.864   8.7756
  3.861   8.8477
  3.858   8.8683
  3.856   8.8065
  3.853   8.7138
  3.850   8.6623
  3.847   8.6623
  3.844   8.6623
  3.841   8.7550
  3.838   8.8168
  3.836   8.7756
  3.833   8.7241
  3.830   8.7241
  3.827   8.8683
  3.824   8.9507
  3.822   8.8477
  3.819   8.8065
  3.816   8.8065
  3.813   8.7756
  3.810   8.8065
  3.807   8.9301
  3.805   8.9507
  3.802   8.9404
  3.799   8.9919
  3.796   9.0434
  3.794   8.9919
  3.791   8.9198
  3.788   8.8992
  3.785   8.9919
  3.782   8.9198
  3.780   8.7859
  3.777   8.7344
  3.774   8.6829
  3.771   8.7035
  3.769   8.7859
  3.766   8.8271
  3.763   8.8065
  3.761   8.7550
  3.758   8.6108
  3.755   8.5284
  3.752   8.5696
  3.750   8.5387
  3.747   8.5387
  3.744   8.4563
  3.742   8.3739
  3.739   8.3842
  3.736   8.4048
  3.733   8.3739
  3.731   8.4048
  3.728   8.4254
  3.725   8.4563
  3.723   8.3533
  3.720   8.3224
  3.717   8.3945
  3.715   8.4769
  3.712   8.4048
  3.709   8.3327
  3.707   8.2503
  3.704   8.3327
  3.702   8.4254
  3.699   8.4048
  3.696   8.3739
  3.694   8.3945
  3.691   8.3945
  3.688   8.3842
  3.686   8.4357
  3.683   8.4357
  3.680   8.3636
  3.678   8.3224
  3.675   8.3121
  3.673   8.3224
  3.670   8.3018
  3.667   8.2297
  3.665   8.1782
  3.662   8.1679
  3.660   8.1679
  3.657   8.2194
  3.655   8.1885
  3.652   8.1370
  3.649   8.1576
  3.647   8.1988
  3.644   8.0752
  3.642   8.0340
  3.639   8.0546
  3.637   8.0443
  3.634   7.9928
  3.632   7.9722
  3.629   7.9516
  3.626   7.8486
  3.624   7.7765
  3.621   7.7868
  3.619   7.7868
  3.616   7.8589
  3.614   7.7765
  3.611   7.6323
  3.609   7.5705
  3.606   7.5808
  3.604   7.5602
  3.601   7.6014
  3.599   7.5705
  3.596   7.4572
  3.594   7.3748
  3.591   7.3954
  3.589   7.3233
  3.586   7.2100
  3.584   7.1997
  3.581   7.2512
  3.579   7.1791
  3.576   7.2203
  3.574   7.1688
  3.571   7.2100
  3.569   7.2718
  3.567   7.1688
  3.564   7.0967
  3.562   7.0555
  3.559   6.9525
  3.557   6.9113
  3.554   6.9216
  3.552   6.9525
  3.549   6.8907
  3.547   6.8289
  3.545   6.7980
  3.542   6.7877
  3.540   6.7568
  3.537   6.6744
  3.535   6.6229
  3.533   6.6847
  3.530   6.6435
  3.528   6.6332
  3.525   6.6229
  3.523   6.5508
  3.521   6.3654
  3.518   6.2109
  3.516   6.0667
  3.513   5.9740
  3.511   5.9122
  3.509   5.8401
  3.506   5.8298
  3.504   5.8813
  3.502   5.8813
  3.499   5.8504
  3.497   5.8092
  3.494   5.7474
  3.492   5.7474
  3.490   5.7577
  3.487   5.8195
  3.485   5.7577
  3.483   5.5826
  3.480   5.5517
  3.478   5.5208
  3.476   5.4899
  3.473   5.4590
  3.471   5.5002
  3.469   5.5105
  3.466   5.4796
  3.464   5.4590
  3.462   5.4899
  3.460   5.4281
  3.457   5.3560
  3.455   5.3148
  3.453   5.3972
  3.450   5.3457
  3.448   5.2118
  3.446   5.1809
  3.443   5.2118
  3.441   5.0882
  3.439   4.9646
  3.437   4.9646
  3.434   4.9131
  3.432   4.8410
  3.430   4.8410
  3.428   4.7998
  3.425   4.7380
  3.423   4.6659
  3.421   4.7071
  3.418   4.6762
  3.416   4.6762
  3.414   4.6659
  3.412   4.5835
  3.409   4.6041
  3.407   4.7277
  3.405   4.8616
  3.403   4.8719
  3.401   4.7380
  3.398   4.7380
  3.396   4.7277
  3.394   4.6556
  3.392   4.6659
  3.389   4.7998
  3.387   4.8204
  3.385   4.7792
  3.383   4.7586
  3.381   4.7277
  3.378   4.6144
  3.376   4.6350
  3.374   4.7689
  3.372   4.7895
  3.370   4.7483
  3.367   4.7071
  3.365   4.7174
  3.363   4.7998
  3.361   4.8101
  3.359   4.7689
  3.357   4.7998
  3.354   4.8101
  3.352   4.7483
  3.350   4.6556
  3.348   4.6659
  3.346   4.7277
  3.344   4.7174
  3.341   4.7483
  3.339   4.7586
  3.337   4.7380
  3.335   4.6556
  3.333   4.6144
  3.331   4.6247
  3.329   4.7380
  3.326   4.7380
  3.324   4.6453
  3.322   4.6350
  3.320   4.7071
  3.318   4.6453
  3.316   4.5423
  3.314   4.5114
  3.312   4.5835
  3.309   4.5320
  3.307   4.4393
  3.305   4.5114
  3.303   4.5423
  3.301   4.5320
  3.299   4.5320
  3.297   4.4496
  3.295   4.3775
  3.293   4.3672
  3.291   4.4702
  3.288   4.4805
  3.286   4.3260
  3.284   4.2127
  3.282   4.3157
  3.280   4.3466
  3.278   4.3363
  3.276   4.2230
  3.274   4.2230
  3.272   4.2642
  3.270   4.2848
  3.268   4.3054
  3.266   4.2745
  3.264   4.2642
  3.262   4.1509
  3.259   4.0891
  3.257   4.2127
  3.255   4.1509
  3.253   4.0994
  3.251   4.1097
  3.249   4.0891
  3.247   4.0891
  3.245   4.1303
  3.243   4.0685
  3.241   4.0479
  3.239   4.0685
  3.237   4.0170
  3.235   3.9346
  3.233   3.9758
  3.231   4.0376
  3.229   4.0788
  3.227   4.0273
  3.225   3.9964
  3.223   3.9964
  3.221   3.9346
  3.219   3.8316
  3.217   3.7801
  3.215   3.9346
  3.213   3.9552
  3.211   3.7801
  3.209   3.8831
  3.207   3.8934
  3.205   3.8728
  3.203   3.8213
  3.201   3.8625
  3.199   3.7698
  3.197   3.7389
  3.195   3.6874
  3.193   3.7286
  3.191   3.7183
  3.189   3.6874
  3.187   3.6977
  3.185   3.7389
  3.183   3.7389
  3.182   3.7595
  3.180   3.7183
  3.178   3.7595
  3.176   3.8007
  3.174   3.7595
  3.172   3.6668
  3.170   3.6153
  3.168   3.6153
  3.166   3.5844
  3.164   3.4917
  3.162   3.4402
  3.160   3.3887
  3.158   3.3784
  3.156   3.3269
  3.154   3.3887
  3.152   3.4711
  3.151   3.5020
  3.149   3.5226
  3.147   3.6050
  3.145   3.5844
  3.143   3.4608
  3.141   3.3681
  3.139   3.3784
  3.137   3.3887
  3.135   3.3681
  3.133   3.2754
  3.132   3.3269
  3.130   3.3681
  3.128   3.3887
  3.126   3.3887
  3.124   3.2651
  3.122   3.1209
  3.120   3.1827
  3.118   3.2754
  3.117   3.3372
  3.115   3.2548
  3.113   3.2342
  3.111   3.2342
  3.109   3.2651
  3.107   3.2857
  3.105   3.2033
  3.103   3.1724
  3.102   3.1930
  3.100   3.1106
  3.098   3.0076
  3.096   2.9561
  3.094   2.9870
  3.092   3.0488
  3.091   3.0900
  3.089   2.9767
  3.087   2.9458
  3.085   3.0179
  3.083   3.0488
  3.081   3.0694
  3.079   3.1209
  3.078   2.9664
  3.076   2.9664
  3.074   3.1209
  3.072   3.0797
  3.070   3.0179
  3.069   3.0076
  3.067   2.8325
  3.065   2.8016
  3.063   2.9252
  3.061   2.9252
  3.060   2.9767
  3.058   3.0385
  3.056   2.9973
  3.054   2.8943
  3.052   2.8428
  3.051   2.9561
  3.049   2.9561
  3.047   2.8737
  3.045   2.8016
  3.043   2.9046
  3.042   3.0076
  3.040   2.9561
  3.038   2.8531
  3.036   2.8222
  3.034   2.8634
  3.033   2.8428
  3.031   2.8222
  3.029   2.8840
  3.027   2.8634
  3.026   2.9664
  3.024   2.8531
  3.022   2.8634
  3.020   2.9046
  3.019   2.8531
  3.017   2.7398
  3.015   2.6986
  3.013   2.6883
  3.012   2.8943
  3.010   2.9458
  3.008   2.7913
  3.006   2.8222
  3.005   2.9767
  3.003   2.8119
  3.001   2.5750
  2.999   2.5544
  2.998   2.6574
  2.996   2.6883
  2.994   2.7398
  2.992   2.6883
  2.991   2.6368
  2.989   2.4720
  2.987   2.5132
  2.986   2.6986
  2.984   2.7810
  2.982   2.6574
  2.980   2.7398
  2.979   2.8325
  2.977   2.6162
  2.975   2.4514
  2.974   2.5853
  2.972   2.7089
  2.970   2.7192
  2.968   2.6986
  2.967   2.7913
  2.965   2.7398
  2.963   2.8222
  2.962   2.8222
  2.960   2.7604
  2.958   2.7913
  2.957   2.6986
  2.955   2.7604
  2.953   2.8016
  2.952   2.7398
  2.950   2.7089
  2.948   2.6162
  2.947   2.6780
  2.945   2.7810
  2.943   2.8428
  2.942   2.7604
  2.940   2.7089
  2.938   2.6986
  2.937   2.6059
  2.935   2.6677
  2.933   2.7501
  2.932   2.6677
  2.930   2.7089
  2.928   2.7192
  2.927   2.7913
  2.925   2.6265
  2.923   2.5647
  2.922   2.3793
  2.920   2.3690
  2.918   2.5441
  2.917   2.7501
  2.915   2.7707
  2.913   2.8222
  2.912   2.7810
  2.910   2.7089
  2.909   2.5853
  2.907   2.6780
  2.905   2.5956
  2.904   2.5029
  2.902   2.3587
  2.900   2.4411
  2.899   2.6059
  2.897   2.7398
  2.896   2.8119
  2.894   2.7810
  2.892   2.6368
  2.891   2.6986
  2.889   2.8016
  2.887   2.7810
  2.886   2.6780
  2.884   2.6368
  2.883   2.5029
  2.881   2.4617
  2.879   2.5853
  2.878   2.8943
  2.876   2.8943
  2.875   2.7398
  2.873   2.5853
  2.871   2.5029
  2.870   2.6780
  2.868   2.9355
  2.867   3.0179
  2.865   2.9973
  2.864   2.8325
  2.862   2.7810
  2.860   2.8016
  2.859   2.8222
  2.857   2.8119
  2.856   2.7295
  2.854   2.6574
  2.853   2.6677
  2.851   2.6574
  2.849   2.7295
  2.848   2.7810
  2.846   2.8325
  2.845   2.8222
  2.843   2.8531
  2.842   2.8325
  2.840   2.9046
  2.838   2.7810
  2.837   2.6368
  2.835   2.8016
  2.834   3.1724
  2.832   3.3063
  2.831   3.1415
  2.829   2.8840
  2.828   2.8943
  2.826   2.9458
  2.825   3.0797
  2.823   3.0179
  2.821   2.9973
  2.820   2.9870
  2.818   2.9458
  2.817   3.1518
  2.815   3.3063
  2.814   3.2033
  2.812   3.1106
  2.811   3.0385
  2.809   3.1106
  2.808   3.1209
  2.806   3.2651
  2.805   3.3166
  2.803   3.1724
  2.802   3.1930
  2.800   3.2445
  2.799   3.1209
  2.797   3.1518
  2.796   3.2342
  2.794   3.1209
  2.793   2.8737
  2.791   2.9664
  2.790   3.0694
  2.788   3.1518
  2.787   3.2960
  2.785   3.4608
  2.784   3.3475
  2.782   3.3578
  2.781   3.2548
  2.779   3.1930
  2.778   3.3475
  2.776   3.4917
  2.775   3.3887
  2.773   3.3063
  2.772   3.4196
  2.770   3.5226
  2.769   3.3166
  2.767   3.2033
  2.766   3.1621
  2.764   3.3063
  2.763   3.5020
  2.761   3.3681
  2.760   3.3063
  2.758   3.6462
  2.757   3.6462
  2.756   3.7698
  2.754   3.7286
  2.753   3.6359
  2.751   3.7389
  2.750   3.7801
  2.748   3.8316
  2.747   3.9140
  2.745   4.0376
  2.744   4.0479
  2.742   3.9449
  2.741   4.1097
  2.740   4.2848
  2.738   4.2848
  2.737   4.3569
  2.735   4.6659
  2.734   4.6247
  2.732   4.5423
  2.731   4.6659
  2.729   4.7689
  2.728   4.9749
  2.727   5.1088
  2.725   5.0882
  2.724   5.0676
  2.722   4.9543
  2.721   5.0058
  2.719   5.1912
  2.718   5.4590
  2.717   5.8298
  2.715   6.1285
  2.714   6.3345
  2.712   6.5508
  2.711   6.8186
  2.709   7.3027
  2.708   7.4469
  2.707   7.5808
  2.705   7.8280
  2.704   8.1370
  2.702   8.4151
  2.701   8.5902
  2.700   8.7962
  2.698   9.2185
  2.697   9.6717
  2.695  10.2588
  2.694  10.7635
  2.693  11.0313
  2.691  11.2579
  2.690  11.9377
  2.688  12.3600
  2.687  12.7617
  2.686  13.2149
  2.684  13.5651
  2.683  13.8638
  2.681  14.1831
  2.680  14.4612
  2.679  14.6672
  2.677  14.7805
  2.676  14.9865
  2.675  15.2440
  2.673  15.4500
  2.672  15.7796
  2.670  16.2328
  2.669  16.5830
  2.668  16.8714
  2.666  17.1907
  2.665  17.2422
  2.664  17.1392
  2.662  17.2525
  2.661  17.2010
  2.659  17.3452
  2.658  17.7881
  2.657  18.0868
  2.655  18.0250
  2.654  18.3134
  2.653  18.6018
  2.651  18.6224
  2.650  18.6327
  2.649  18.7872
  2.647  18.7666
  2.646  18.8387
  2.645  18.9726
  2.643  19.0962
  2.642  19.4258
  2.640  19.5185
  2.639  19.3537
  2.638  19.5494
  2.636  19.7966
  2.635  20.0232
  2.634  20.1777
  2.632  20.2910
  2.631  20.3631
  2.630  20.5691
  2.628  20.6824
  2.627  20.7030
  2.626  20.5176
  2.624  20.5897
  2.623  20.7751
  2.622  20.7545
  2.620  20.8369
  2.619  21.0532
  2.618  21.3313
  2.617  21.4034
  2.615  21.1047
  2.614  21.1047
  2.613  21.2592
  2.611  21.3416
  2.610  21.3313
  2.609  21.3519
  2.607  21.3004
  2.606  21.4858
  2.605  21.7845
  2.603  21.9802
  2.602  21.9802
  2.601  21.8566
  2.599  21.7536
  2.598  21.7742
  2.597  21.9699
  2.596  21.9390
  2.594  21.9081
  2.593  21.7433
  2.592  21.8875
  2.590  22.1244
  2.589  22.0523
  2.588  22.1038
  2.586  22.2377
  2.585  22.2583
  2.584  22.2068
  2.583  22.1965
  2.581  22.1862
  2.580  22.3510
  2.579  22.3304
  2.577  22.5776
  2.576  22.7218
  2.575  22.6806
  2.574  22.3922
  2.572  22.2583
  2.571  22.4643
  2.570  22.5776
  2.569  22.6291
  2.567  22.5982
  2.566  22.3098
  2.565  22.5879
  2.563  22.7218
  2.562  22.6394
  2.561  22.6703
  2.560  22.7115
  2.558  22.7527
  2.557  22.6703
  2.556  22.6909
  2.555  23.0102
  2.553  22.8454
  2.552  22.5673
  2.551  22.5364
  2.550  22.7733
  2.548  22.8763
  2.547  22.7630
  2.546  22.4952
  2.545  22.6085
  2.543  22.8145
  2.542  22.6497
  2.541  22.5467
  2.540  22.6497
  2.538  22.7733
  2.537  22.8763
  2.536  23.0514
  2.535  23.1235
  2.533  23.0823
  2.532  23.1544
  2.531  23.2059
  2.530  23.4428
  2.528  23.5561
  2.527  23.4325
  2.526  23.0617
  2.525  23.1750
  2.524  23.3398
  2.522  23.1750
  2.521  23.6385
  2.520  23.9475
  2.519  23.7415
  2.517  23.7003
  2.516  23.6797
  2.515  23.5870
  2.514  23.8136
  2.513  24.1123
  2.511  24.1741
  2.510  23.9269
  2.509  23.8857
  2.508  23.9578
  2.506  23.7827
  2.505  23.8239
  2.504  23.8239
  2.503  23.7621
  2.502  23.9578
  2.500  24.4007
  2.500  24.4007
  2.496  24.2433
  2.492  24.1420
  2.488  24.5930
  2.484  24.3212
  2.480  24.7229
  2.476  25.3744
  2.472  25.2214
  2.468  25.3631
  2.464  25.7445
  2.460  26.3922
  2.456  26.7395
  2.452  26.8359
  2.448  27.1947
  2.444  27.5392
  2.440  27.9102
  2.436  28.1234
  2.432  28.4741
  2.428  28.9704
  2.424  29.2332
  2.420  29.2947
  2.416  29.7976
  2.412  29.6975
  2.408  30.1425
  2.404  30.4104
  2.400  30.7009
  2.396  30.9202
  2.392  31.2226
  2.388  31.0012
  2.384  31.3561
  2.380  31.6932
  2.376  31.4912
  2.372  31.6410
  2.368  31.5495
  2.364  31.7492
  2.360  31.9189
  2.356  31.9463
  2.352  32.1699
  2.348  31.8601
  2.344  32.0235
  2.340  31.8585
  2.336  31.9093
  2.332  31.8114
  2.328  31.5955
  2.324  31.6081
  2.320  31.5326
  2.316  31.3204
  2.312  31.3832
  2.308  31.3267
  2.304  31.5354
  2.300  31.3847
  2.296  31.4081
  2.292  31.3525
  2.288  31.4575
  2.284  31.3384
  2.280  31.4487
  2.276  31.4116
  2.272  31.5678
  2.268  31.6382
  2.264  31.6299
  2.260  31.6629
  2.256  31.8154
  2.252  31.8222
  2.248  32.0590
  2.244  32.2396
  2.240  32.3424
  2.236  32.3992
  2.232  32.4004
  2.228  32.5235
  2.224  32.5660
  2.220  32.6016
  2.216  32.6830
  2.212  32.8711
  2.208  33.0842
  2.204  33.3141
  2.200  33.6129
  2.196  33.9567
  2.192  34.3365
  2.188  34.6164
  2.184  35.0196
  2.180  35.4496
  2.176  35.8408
  2.172  36.1747
  2.168  36.4192
  2.164  36.8198
  2.160  37.0962
  2.156  37.2821
  2.152  37.4720
  2.148  37.6551
  2.144  37.7753
  2.140  37.8512
  2.136  37.8640
  2.132  37.8705
  2.128  37.8969
  2.124  37.9387
  2.120  37.8072
  2.116  37.6553
  2.112  37.5820
  2.108  37.4718
  2.104  37.3625
  2.100  37.3040
  2.096  37.2816
  2.092  37.2761
  2.088  37.2614
  2.084  37.2683
  2.080  37.3135
  2.076  37.2744
  2.072  37.1806
  2.068  37.1308
  2.064  37.1452
  2.060  37.1121
  2.056  37.0983
  2.052  37.1455
  2.048  37.1378
  2.044  37.0990
  2.040  37.0478
  2.036  36.9758
  2.032  36.9488
  2.028  36.8766
  2.024  36.7480
  2.020  36.5784
  2.016  36.3813
  2.012  36.1738
  2.008  35.9398
  2.004  35.6767
  2.000  35.3994
  1.996  35.0827
  1.992  34.7731
  1.988  34.4386
  1.984  34.0774
  1.980  33.6877
  1.976  33.3538
  1.972  33.0293
  1.968  32.6906
  1.964  32.3424
  1.960  31.9626
  1.956  31.6097
  1.952  31.3251
  1.948  31.0326
  1.944  30.8270
  1.940  30.7059
  1.936  30.6214
  1.932  30.5626
  1.928  30.6287
  1.924  30.8115
  1.920  31.0578
  1.916  31.4277
  1.912  32.0860
  1.908  33.0109
  1.904  34.2264
  1.900  35.6195
  1.896  36.9108
  1.892  38.0478
  1.888  39.0495
  1.884  39.9447
  1.880  40.8541
  1.876  41.8517
  1.872  42.8088
  1.868  43.4782
  1.864  43.7851
  1.860  43.9144
  1.856  44.0484
  1.852  44.1508
  1.848  44.2266
  1.844  44.2969
  1.840  44.4171
  1.836  44.4920
  1.832  44.4537
  1.828  44.4041
  1.824  44.3505
  1.820  44.3254
  1.816  44.2805
  1.812  44.2337
  1.808  44.2170
  1.804  44.1738
  1.800  44.1590
  1.796  44.1560
  1.792  44.0916
  1.788  43.9992
  1.784  43.9206
  1.780  43.8523
  1.776  43.8121
  1.772  43.7952
  1.768  43.7930
  1.764  43.8175
  1.760  43.8623
  1.756  43.8984
  1.752  43.9104
  1.748  43.9220
  1.744  43.9199
  1.740  43.9109
  1.736  43.9112
  1.732  43.9130
  1.728  43.9393
  1.724  43.9575
  1.720  43.9824
  1.716  44.0057
  1.712  44.0200
  1.708  44.0633
  1.704  44.0903
  1.700  44.0857
  1.696  44.0928
  1.692  44.1059
  1.688  44.1154
  1.684  44.1528
  1.680  44.1826
  1.676  44.2090
  1.672  44.2527
  1.668  44.2354
  1.664  44.1489
  1.660  44.0767
  1.656  44.0187
  1.652  43.9711
  1.648  43.9260
  1.644  43.8570
  1.640  43.7808
  1.636  43.7071
  1.632  43.6144
  1.628  43.5257
  1.624  43.4665
  1.620  43.3862
  1.616  43.3248
  1.612  43.2082
  1.608  43.1024
  1.604  43.0177
  1.600  42.9288
  1.596  42.8820
  1.592  42.7770
  1.588  42.6525
  1.584  42.5528
  1.580  42.4702
  1.576  42.4035
  1.572  42.2924
  1.568  42.2464
  1.564  42.1539
  1.560  42.0654
  1.556  41.9805
  1.552  41.8626
  1.548  41.7700
  1.544  41.6725
  1.540  41.5817
  1.536  41.4671
  1.532  41.3256
  1.528  41.2004
  1.524  41.1126
  1.520  40.9428
  1.516  40.7833
  1.512  40.6755
  1.508  40.5308
  1.504  40.3474
  1.500  40.1786
  1.496  40.0801
  1.492  39.9260
  1.488  39.7618
  1.484  39.5741
  1.480  39.4083
  1.476  39.2948
  1.472  39.1952
  1.468  39.0659
  1.464  38.9864
  1.460  38.8931
  1.456  38.8512
  1.452  38.7530
  1.448  38.7137
  1.444  38.6787
  1.440  38.6147
  1.436  38.5306
  1.432  38.5735
  1.428  38.5855
  1.424  38.6687
  1.420  38.8163
  1.416  39.0938
  1.412  39.5182
  1.408  40.0577
  1.404  40.6676
  1.400  41.2495
  1.396  41.8335
  1.392  42.3078
  1.388  42.8173
  1.384  43.2723
  1.380  43.6200
  1.376  43.8518
  1.372  44.0010
  1.368  44.1378
  1.364  44.2600
  1.360  44.3121
  1.356  44.2949
  1.352  44.3313
  1.348  44.4328
  1.344  44.4710
  1.340  44.5284
  1.336  44.5540
  1.332  44.5060
  1.328  44.4656
  1.324  44.4740
  1.320  44.4692
  1.316  44.4806
  1.312  44.4779
  1.308  44.3655
  1.304  44.3325
  1.300  44.2801
  1.296  44.1810
  1.292  44.2061
  1.288  44.1366
  1.284  44.0462
  1.280  43.9587
  1.276  43.8261
  1.272  43.7630
  1.268  43.6852
  1.264  43.6619
  1.260  43.6020
  1.256  43.4821
  1.252  43.3502
  1.248  43.3063
  1.244  43.2143
  1.240  43.1092
  1.236  43.0579
  1.232  43.0299
  1.228  42.9101
  1.224  42.8019
  1.220  42.6793
  1.216  42.5936
  1.212  42.4934
  1.208  42.3731
  1.204  42.3313
  1.200  42.2107
  1.196  42.1551
  1.192  42.0371
  1.188  41.9663
  1.184  41.8575
  1.180  41.7790
  1.176  41.7296
  1.172  41.6747
  1.168  41.5863
  1.164  41.5190
  1.160  41.4717
  1.156  41.3736
  1.152  41.3711
  1.148  41.3159
  1.144  41.2728
  1.140  41.1705
  1.136  41.1169
  1.132  41.0605
  1.128  41.0110
  1.124  40.9024
  1.120  40.8415
  1.116  40.7369
  1.112  40.6492
  1.108  40.5408
  1.104  40.4756
  1.100  40.4052
  1.096  40.3071
  1.092  40.2589
  1.088  40.1480
  1.084  40.0318
  1.080  39.9645
  1.076  39.8631
  1.072  39.8273
  1.068  39.7262
  1.064  39.5857
  1.060  39.5025
  1.056  39.4580
  1.052  39.3745
  1.048  39.2438
  1.044  39.1607
  1.040  39.0637
  1.036  38.9838
  1.032  38.8934
  1.028  38.7865
  1.024  38.7135
  1.020  38.6299
  1.016  38.5128
  1.012  38.3984
  1.008  38.2959
  1.004  38.2223
  1.000  38.1792
  0.996  38.0353
  0.992  37.9101
  0.988  37.8018
  0.984  37.7149
  0.980  37.6115
  0.976  37.5143
  0.972  37.3871
  0.968  37.3307
  0.964  37.2005
  0.960  37.1402
  0.956  37.0589
  0.952  36.9670
  0.948  36.8840
  0.944  36.7834
  0.940  36.7150
  0.936  36.6677
  0.932  36.5764
  0.928  36.4756
  0.924  36.3623
  0.920  36.3556
  0.916  36.4056
  0.912  36.3423
  0.908  36.2755
  0.904  36.2007
  0.900  36.1492
  0.896  36.0790
  0.892  35.8929
  0.888  35.7657
  0.884  35.6965
  0.880  35.5719
  0.876  35.4038
  0.872  35.3578
  0.868  35.3636
  0.864  35.3107
  0.860  35.0983
  0.856  34.8874
  0.852  34.6586
  0.848  34.8249
  0.844  34.7182
  0.840  34.4681
  0.836  34.3851
  0.832  34.2726
  0.828  34.1435
  0.824  34.0344
  0.820  33.8674
  0.816  33.8229
  0.812  33.6618
  0.808  33.5617
  0.804  33.4250
  0.800  33.3406
  0.796  33.2323
  0.792  33.0548
  0.788  32.9173
  0.784  32.8095
  0.780  32.7102
  0.776  32.5651
  0.772  32.4416
  0.768  32.3476
  0.764  32.1775
  0.760  32.0564
  0.756  31.9738
  0.752  31.8064
  0.748  31.6647
  0.744  31.5240
  0.740  31.4010
  0.736  31.2556
  0.732  31.1244
  0.728  30.9754
  0.724  30.7918
  0.720  30.6169
  0.716  30.4725
  0.712  30.2994
  0.708  30.1127
  0.704  29.9229
  0.700  29.7450
  0.696  29.5903
  0.692  29.4565
  0.688  29.3481
  0.684  29.2512
  0.680  29.1647
  0.676  29.0725
  0.672  28.9927
  0.668  28.8876
  0.664  28.7968
  0.660  28.6995
  0.656  28.5761
  0.652  28.4873
  0.648  28.4193
  0.644  28.3170
  0.640  28.2054
  0.636  28.1001
  0.632  27.9950
  0.628  27.8870
  0.624  27.7930
  0.620  27.6934
  0.616  27.5933
  0.612  27.4862
  0.608  27.3628
  0.604  27.2115
  0.600  27.0852
  0.596  26.9427
  0.592  26.7792
  0.588  26.5962
  0.584  26.4121
  0.580  26.2343
  0.576  26.0040
  0.572  25.7394
  0.568  25.4736
  0.564  25.2233
  0.560  24.9388
  0.556  24.6321
  0.552  24.3320
  0.548  24.0436
  0.544  23.7576
  0.540  23.4658
  0.536  23.1848
  0.532  22.9032
  0.528  22.6171
  0.524  22.3646
  0.520  22.0857
  0.516  21.8145
  0.512  21.5734
  0.508  21.3059
  0.504  21.0703
  0.500  20.8308
  0.496  20.5817
  0.492  20.3463
  0.488  20.1265
  0.484  19.9243
  0.480  19.7388
  0.476  19.5581
  0.472  19.3970
  0.468  19.2342
  0.464  19.0630
  0.460  18.8861
  0.456  18.6943
  0.452  18.4581
  0.448  18.1710
  0.444  17.8748
  0.440  17.5894
  0.436  17.3005
  0.432  16.9888
  0.428  16.6985
  0.424  16.4326
  0.420  16.1649
  0.416  15.9081
  0.412  15.6757
  0.408  15.4198
  0.404  15.1434
  0.400  14.8891
