Name: Altered volcanic tuff
Type: Rock
Class: Igneous
Subclass: Felsic
Particle Size: Whole rock chips
Sample No.: Cup7
Owner: USGS
Wavelength range: 0.40 - 14.05 um
Origin: Cuprite, Nevada

Description: Altered volcanic tuff, white





Measurement: Directional Hemispherical Reflectance
First Column: X
Second Column: Y
X Units: Wavelength (micrometers)
Y Units: Reflectance (percent)
First X Value: 14.05105
Last X Value: 0.40000
Number of X Values: 2756
Additional Information: None

 14.051   7.5602
 14.013   7.1791
 13.975   6.9216
 13.938   6.5199
 13.900   6.1182
 13.863   5.6547
 13.826   5.4281
 13.790   4.9337
 13.753   4.3775
 13.717   3.9552
 13.680   3.7595
 13.644   3.3887
 13.609   3.0282
 13.573   2.7913
 13.538   2.7810
 13.502   2.6986
 13.467   2.5441
 13.432   2.3072
 13.398   2.1836
 13.363   2.1424
 13.329   2.1012
 13.295   2.0188
 13.261   2.0394
 13.227   1.9982
 13.193   2.0703
 13.160   1.9776
 13.126   1.9673
 13.093   1.9570
 13.060   2.0085
 13.027   1.9673
 12.995   1.9673
 12.962   2.0497
 12.930   2.1424
 12.898   2.0909
 12.866   2.1836
 12.834   2.1630
 12.802   2.2042
 12.771   2.1733
 12.739   2.0909
 12.708   2.0085
 12.677   1.9570
 12.646   1.8746
 12.616   1.9673
 12.585   1.9776
 12.554   1.8849
 12.524   1.7510
 12.494   1.6892
 12.464   1.7201
 12.434   1.8128
 12.404   1.7304
 12.375   1.6171
 12.345   1.5244
 12.316   1.6171
 12.287   1.6480
 12.258   1.6789
 12.229   1.6789
 12.200   1.6789
 12.171   1.6995
 12.143   1.9158
 12.115   1.9055
 12.086   1.9055
 12.058   1.9776
 12.030   2.0600
 12.002   2.0085
 11.975   2.0703
 11.947   2.1218
 11.920   2.1321
 11.892   2.1424
 11.865   2.2145
 11.838   2.2145
 11.811   2.3278
 11.784   2.3793
 11.757   2.3793
 11.731   2.3999
 11.704   2.4926
 11.678   2.5853
 11.652   2.6059
 11.626   2.5544
 11.600   2.6780
 11.574   2.7501
 11.548   2.7707
 11.522   2.8016
 11.497   2.9046
 11.471   2.8943
 11.446   2.9252
 11.421   2.8943
 11.396   2.8840
 11.371   2.8943
 11.346   2.9767
 11.321   3.0179
 11.297   3.1106
 11.272   3.1312
 11.248   3.1518
 11.223   3.1930
 11.199   3.2548
 11.175   3.2548
 11.151   3.3063
 11.127   3.3269
 11.103   3.2857
 11.079   3.2754
 11.056   3.3681
 11.032   3.4505
 11.009   3.5226
 10.985   3.4608
 10.962   3.4814
 10.939   3.4608
 10.916   3.5638
 10.893   3.5741
 10.870   3.6771
 10.848   3.7286
 10.825   3.7286
 10.802   3.6256
 10.780   3.6565
 10.758   3.6462
 10.735   3.7183
 10.713   3.7904
 10.691   3.8625
 10.669   3.8625
 10.647   3.8625
 10.625   3.8728
 10.604   3.9552
 10.582   3.9758
 10.560   4.0376
 10.539   4.0994
 10.518   4.1612
 10.496   4.1818
 10.475   4.2745
 10.454   4.3157
 10.433   4.3569
 10.412   4.3569
 10.391   4.4599
 10.370   4.5938
 10.350   4.6968
 10.329   4.6865
 10.309   4.6968
 10.288   4.7689
 10.268   4.8925
 10.247   5.0058
 10.227   5.1294
 10.207   5.1397
 10.187   5.2221
 10.167   5.3045
 10.147   5.4796
 10.127   5.5517
 10.108   5.6444
 10.088   5.7577
 10.068   5.8504
 10.049   5.8916
 10.029   5.9843
 10.010   6.0358
  9.991   6.1491
  9.972   6.2727
  9.952   6.4169
  9.933   6.5199
  9.914   6.5920
  9.895   6.6744
  9.877   6.9422
  9.858   7.0864
  9.839   7.2409
  9.821   7.3542
  9.802   7.5293
  9.783   7.6735
  9.765   7.8486
  9.747   8.0855
  9.728   8.4769
  9.710   8.4460
  9.692   7.9928
  9.674   7.5396
  9.656   7.4675
  9.638   7.5499
  9.620   7.7044
  9.602   7.8383
  9.585   7.9516
  9.567   8.0340
  9.549   8.2194
  9.532   8.3430
  9.514   8.4460
  9.497   8.5490
  9.479   8.7344
  9.462   8.9919
  9.445   9.2391
  9.428   9.4245
  9.411   9.7335
  9.394  10.0528
  9.377  10.4545
  9.360  10.8459
  9.343  11.3918
  9.326  12.0819
  9.309  12.9265
  9.293  13.6063
  9.276  14.1419
  9.259  14.5436
  9.243  14.9144
  9.226  15.2955
  9.210  15.6869
  9.194  15.9032
  9.178  16.2019
  9.161  16.5109
  9.145  16.7581
  9.129  16.9538
  9.113  17.2525
  9.097  17.5409
  9.081  17.6954
  9.065  17.7469
  9.049  17.9117
  9.034  18.0662
  9.018  18.1692
  9.002  18.2825
  8.987  18.4267
  8.971  18.4370
  8.956  18.4164
  8.940  18.3546
  8.925  18.1898
  8.909  18.0250
  8.894  17.9838
  8.879  17.8087
  8.864  17.5924
  8.849  17.3555
  8.834  17.0362
  8.819  16.7478
  8.804  16.6036
  8.789  16.4079
  8.774  16.0371
  8.759  15.6354
  8.744  15.3058
  8.730  14.9041
  8.715  14.5230
  8.700  14.1316
  8.686  13.7505
  8.671  13.1634
  8.657  12.4836
  8.642  11.7935
  8.628  11.2476
  8.614  11.1961
  8.599  11.8347
  8.585  12.6381
  8.571  13.1531
  8.557  13.1325
  8.543  12.7205
  8.529  11.9995
  8.515  11.2373
  8.501  10.4751
  8.487   9.7850
  8.473   9.1876
  8.459   8.7447
  8.445   8.3018
  8.431   7.9413
  8.418   7.5705
  8.404   7.2615
  8.391   7.0349
  8.377   6.8804
  8.363   6.6847
  8.350   6.4272
  8.337   6.2418
  8.323   6.1594
  8.310   5.9946
  8.297   5.8195
  8.283   5.7268
  8.270   5.7371
  8.257   5.6547
  8.244   5.6032
  8.231   5.5105
  8.218   5.4899
  8.205   5.5105
  8.192   5.5105
  8.179   5.4796
  8.166   5.5105
  8.153   5.5620
  8.140   5.5723
  8.128   5.4693
  8.115   5.4281
  8.102   5.3766
  8.090   5.3972
  8.077   5.4075
  8.064   5.4281
  8.052   5.4281
  8.039   5.4899
  8.027   5.5826
  8.015   5.7062
  8.002   5.7577
  7.990   5.8401
  7.978   5.8916
  7.965   6.0152
  7.953   6.0873
  7.941   6.1800
  7.929   6.1491
  7.917   6.1285
  7.905   6.0667
  7.893   6.0049
  7.881   5.8092
  7.869   5.5517
  7.857   5.2942
  7.845   5.0367
  7.833   4.6968
  7.821   4.3878
  7.809   4.1097
  7.798   3.8316
  7.786   3.4402
  7.774   3.0900
  7.763   2.8222
  7.751   2.6265
  7.739   2.3381
  7.728   2.1527
  7.716   2.0394
  7.705   1.9776
  7.694   1.8437
  7.682   1.7201
  7.671   1.6480
  7.659   1.5656
  7.648   1.4214
  7.637   1.3596
  7.626   1.3493
  7.614   1.2978
  7.603   1.1948
  7.592   1.1742
  7.581   1.1948
  7.570   1.1639
  7.559   1.0815
  7.548   1.1021
  7.537   1.1021
  7.526   1.0918
  7.515   1.0506
  7.504   1.0609
  7.493   1.0815
  7.483   1.1021
  7.472   1.0609
  7.461   1.0609
  7.450   1.0300
  7.440   1.0300
  7.429   1.0506
  7.418   1.0609
  7.408   1.0300
  7.397   1.0609
  7.387   1.0403
  7.376   1.0609
  7.366   1.0506
  7.355   1.0403
  7.345   1.0403
  7.334   1.0403
  7.324   0.9682
  7.314   1.0506
  7.303   1.1433
  7.293   1.1021
  7.283   1.0403
  7.273   1.0712
  7.263   1.0609
  7.252   1.1124
  7.242   1.1124
  7.232   1.1021
  7.222   1.0094
  7.212   1.0609
  7.202   1.0815
  7.192   1.0815
  7.182   1.0300
  7.172   1.0506
  7.162   1.0712
  7.152   1.1124
  7.143   1.0918
  7.133   1.0815
  7.123   1.0609
  7.113   1.1124
  7.103   1.1021
  7.094   1.0712
  7.084   1.0506
  7.074   1.0815
  7.065   1.0506
  7.055   1.0609
  7.046   1.0712
  7.036   1.0094
  7.026   0.9476
  7.017   1.0094
  7.007   1.1124
  6.998   1.1433
  6.989   1.0506
  6.979   1.0609
  6.970   1.0815
  6.960   1.1124
  6.951   1.1227
  6.942   1.1330
  6.932   1.1433
  6.923   1.1948
  6.914   1.1227
  6.905   1.0815
  6.896   1.1124
  6.886   1.2257
  6.877   1.2257
  6.868   1.2051
  6.859   1.1948
  6.850   1.1845
  6.841   1.1742
  6.832   1.1433
  6.823   1.1021
  6.814   1.1948
  6.805   1.2257
  6.796   1.2154
  6.787   1.1845
  6.778   1.2257
  6.770   1.2669
  6.761   1.2978
  6.752   1.2463
  6.743   1.1948
  6.734   1.2154
  6.726   1.2978
  6.717   1.3493
  6.708   1.3802
  6.700   1.3596
  6.691   1.3596
  6.682   1.3493
  6.674   1.3390
  6.665   1.3699
  6.657   1.4832
  6.648   1.4832
  6.640   1.4626
  6.631   1.4523
  6.623   1.4832
  6.614   1.4935
  6.606   1.4626
  6.597   1.4832
  6.589   1.5244
  6.581   1.5141
  6.572   1.5656
  6.564   1.5965
  6.556   1.6274
  6.547   1.6171
  6.539   1.6068
  6.531   1.5553
  6.523   1.6068
  6.514   1.6995
  6.506   1.7510
  6.498   1.7510
  6.490   1.7819
  6.482   1.7922
  6.474   1.8128
  6.466   1.6995
  6.458   1.6789
  6.450   1.7716
  6.442   1.8334
  6.434   1.8025
  6.426   1.8437
  6.418   1.8746
  6.410   1.9261
  6.402   1.8746
  6.394   1.8643
  6.386   1.8437
  6.378   1.8231
  6.370   1.8128
  6.363   1.7922
  6.355   1.8231
  6.347   1.8025
  6.339   1.7098
  6.332   1.7407
  6.324   1.7510
  6.316   1.7201
  6.308   1.6892
  6.301   1.7716
  6.293   1.7819
  6.286   1.7201
  6.278   1.6686
  6.270   1.6789
  6.263   1.6995
  6.255   1.7304
  6.248   1.6789
  6.240   1.6789
  6.233   1.6892
  6.225   1.7201
  6.218   1.6789
  6.210   1.6583
  6.203   1.6789
  6.195   1.6892
  6.188   1.6789
  6.181   1.6377
  6.173   1.5656
  6.166   1.6068
  6.159   1.6583
  6.151   1.6377
  6.144   1.5862
  6.137   1.5450
  6.130   1.5141
  6.122   1.5965
  6.115   1.6274
  6.108   1.6686
  6.101   1.6583
  6.094   1.6583
  6.086   1.5965
  6.079   1.5553
  6.072   1.5965
  6.065   1.7098
  6.058   1.6480
  6.051   1.6171
  6.044   1.6583
  6.037   1.6377
  6.030   1.6377
  6.023   1.7304
  6.016   1.7510
  6.009   1.7407
  6.002   1.7304
  5.995   1.7716
  5.988   1.8128
  5.981   1.8128
  5.974   1.7819
  5.967   1.8334
  5.960   1.8540
  5.954   1.8540
  5.947   1.8540
  5.940   1.8334
  5.933   1.8849
  5.926   1.9776
  5.920   1.9673
  5.913   1.9982
  5.906   1.9879
  5.899   1.9982
  5.893   2.0085
  5.886   2.0394
  5.879   2.1012
  5.873   2.1836
  5.866   2.1939
  5.859   2.2351
  5.853   2.2557
  5.846   2.3072
  5.840   2.3072
  5.833   2.2969
  5.827   2.3175
  5.820   2.3690
  5.813   2.3793
  5.807   2.3999
  5.800   2.4205
  5.794   2.4205
  5.788   2.3999
  5.781   2.4411
  5.775   2.4823
  5.768   2.4823
  5.762   2.4205
  5.755   2.3999
  5.749   2.3896
  5.743   2.4308
  5.736   2.4823
  5.730   2.5647
  5.724   2.5441
  5.717   2.5647
  5.711   2.5750
  5.705   2.5338
  5.698   2.5235
  5.692   2.5853
  5.686   2.6368
  5.680   2.6780
  5.674   2.7089
  5.667   2.6986
  5.661   2.6368
  5.655   2.6059
  5.649   2.6265
  5.643   2.6986
  5.637   2.6986
  5.630   2.7192
  5.624   2.7295
  5.618   2.7913
  5.612   2.7913
  5.606   2.7604
  5.600   2.7604
  5.594   2.7913
  5.588   2.7501
  5.582   2.7089
  5.576   2.6883
  5.570   2.6986
  5.564   2.7295
  5.558   2.7810
  5.552   2.7913
  5.546   2.8016
  5.540   2.7913
  5.534   2.8428
  5.528   2.8737
  5.523   2.9252
  5.517   2.8840
  5.511   2.9046
  5.505   2.8737
  5.499   2.8531
  5.493   2.8840
  5.487   2.9561
  5.482   3.0282
  5.476   3.1003
  5.470   3.0385
  5.464   2.9870
  5.459   2.9767
  5.453   3.0076
  5.447   3.0076
  5.441   3.0488
  5.436   3.1003
  5.430   3.1209
  5.424   3.0694
  5.419   3.0900
  5.413   3.0797
  5.407   3.0591
  5.402   2.9870
  5.396   2.9046
  5.390   2.8325
  5.385   2.8119
  5.379   2.8016
  5.374   2.8016
  5.368   2.7604
  5.363   2.7604
  5.357   2.7398
  5.352   2.7089
  5.346   2.7089
  5.341   2.7089
  5.335   2.6883
  5.330   2.7089
  5.324   2.6780
  5.319   2.6677
  5.313   2.6574
  5.308   2.6986
  5.302   2.7295
  5.297   2.7604
  5.291   2.7707
  5.286   2.8016
  5.281   2.7913
  5.275   2.8428
  5.270   2.8531
  5.265   2.8325
  5.259   2.8737
  5.254   2.9870
  5.249   3.0385
  5.243   3.0282
  5.238   3.0385
  5.233   3.1415
  5.227   3.1827
  5.222   3.2239
  5.217   3.2960
  5.212   3.3681
  5.206   3.3578
  5.201   3.3887
  5.196   3.4196
  5.191   3.4814
  5.186   3.5226
  5.180   3.5535
  5.175   3.5844
  5.170   3.6359
  5.165   3.6359
  5.160   3.6565
  5.155   3.6874
  5.150   3.7492
  5.145   3.7492
  5.139   3.7595
  5.134   3.7595
  5.129   3.7183
  5.124   3.6874
  5.119   3.6977
  5.114   3.7286
  5.109   3.7698
  5.104   3.7492
  5.099   3.7595
  5.094   3.7286
  5.089   3.7183
  5.084   3.6977
  5.079   3.7080
  5.074   3.7080
  5.069   3.7389
  5.064   3.7389
  5.059   3.7492
  5.054   3.6771
  5.049   3.6668
  5.044   3.6874
  5.040   3.7080
  5.035   3.6668
  5.030   3.6771
  5.025   3.6771
  5.020   3.6462
  5.015   3.6256
  5.010   3.6462
  5.005   3.6153
  5.001   3.6359
  4.996   3.6359
  4.991   3.6359
  4.986   3.6771
  4.981   3.6874
  4.977   3.6359
  4.972   3.6359
  4.967   3.6977
  4.962   3.7080
  4.958   3.6874
  4.953   3.7080
  4.948   3.7080
  4.943   3.7904
  4.939   3.7904
  4.934   3.7904
  4.929   3.7904
  4.925   3.8007
  4.920   3.8522
  4.915   3.9243
  4.911   3.9449
  4.906   3.9449
  4.901   3.9758
  4.897   4.0582
  4.892   4.0788
  4.888   4.0891
  4.883   4.0891
  4.878   4.0788
  4.874   4.1097
  4.869   4.1406
  4.865   4.1406
  4.860   4.1818
  4.856   4.1406
  4.851   4.0582
  4.846   3.9964
  4.842   4.0685
  4.837   4.1921
  4.833   4.3054
  4.828   4.3878
  4.824   4.4702
  4.819   4.4702
  4.815   4.4702
  4.810   4.4908
  4.806   4.5526
  4.802   4.5835
  4.797   4.5938
  4.793   4.5011
  4.788   4.4393
  4.784   4.3672
  4.779   4.2436
  4.775   4.0479
  4.771   3.9346
  4.766   3.8007
  4.762   3.6050
  4.758   3.5020
  4.753   3.4917
  4.749   3.3578
  4.744   3.2548
  4.740   3.2342
  4.736   3.1415
  4.731   3.0282
  4.727   2.9973
  4.723   3.0076
  4.719   3.0179
  4.714   3.0179
  4.710   3.0591
  4.706   3.1003
  4.701   3.1209
  4.697   3.1003
  4.693   3.0900
  4.689   3.1106
  4.684   3.1209
  4.680   3.1106
  4.676   3.1518
  4.672   3.1930
  4.668   3.2548
  4.663   3.2445
  4.659   3.1930
  4.655   3.1415
  4.651   3.2033
  4.647   3.2445
  4.643   3.2033
  4.638   3.1827
  4.634   3.2445
  4.630   3.2342
  4.626   3.1312
  4.622   3.0797
  4.618   3.0694
  4.614   3.0591
  4.610   3.1209
  4.605   3.0694
  4.601   2.9973
  4.597   2.9664
  4.593   2.9355
  4.589   2.9252
  4.585   2.9973
  4.581   2.9973
  4.577   2.9870
  4.573   2.9767
  4.569   3.0591
  4.565   3.0488
  4.561   3.0179
  4.557   2.9973
  4.553   3.0900
  4.549   3.1518
  4.545   3.2033
  4.541   3.1930
  4.537   3.1724
  4.533   3.1518
  4.529   3.1724
  4.525   3.1930
  4.521   3.1724
  4.517   3.2136
  4.513   3.2445
  4.509   3.2033
  4.505   3.1930
  4.502   3.1312
  4.498   3.1621
  4.494   3.2033
  4.490   3.1827
  4.486   3.1827
  4.482   3.2239
  4.478   3.2239
  4.474   3.2445
  4.470   3.2857
  4.467   3.3269
  4.463   3.2960
  4.459   3.2960
  4.455   3.3063
  4.451   3.3681
  4.447   3.3887
  4.444   3.4402
  4.440   3.4299
  4.436   3.3578
  4.432   3.2857
  4.428   3.3578
  4.425   3.3990
  4.421   3.4093
  4.417   3.4196
  4.413   3.3990
  4.410   3.4093
  4.406   3.5226
  4.402   3.5947
  4.398   3.5432
  4.395   3.4608
  4.391   3.4917
  4.387   3.4814
  4.384   3.4711
  4.380   3.4402
  4.376   3.3887
  4.372   3.3372
  4.369   3.3578
  4.365   3.3990
  4.361   3.4299
  4.358   3.4299
  4.354   3.5020
  4.350   3.4917
  4.347   3.4505
  4.343   3.4608
  4.340   3.5535
  4.336   3.6153
  4.332   3.6874
  4.329   3.6977
  4.325   3.7080
  4.321   3.6977
  4.318   3.8419
  4.314   3.9243
  4.311   3.9861
  4.307   4.0273
  4.304   4.0685
  4.300   4.0891
  4.296   4.1612
  4.293   4.1509
  4.289   4.1921
  4.286   4.2745
  4.282   4.2436
  4.279   4.2745
  4.275   4.4290
  4.272   4.4805
  4.268   4.5011
  4.265   4.3981
  4.261   4.3981
  4.258   4.5217
  4.254   4.5526
  4.251   4.5835
  4.247   4.6247
  4.244   4.6350
  4.240   4.7380
  4.237   4.8616
  4.233   4.9337
  4.230   4.9955
  4.226   5.0882
  4.223   5.0882
  4.219   5.1397
  4.216   5.2324
  4.213   5.2633
  4.209   5.2221
  4.206   5.2530
  4.202   5.2942
  4.199   5.3251
  4.196   5.2942
  4.192   5.3457
  4.189   5.3972
  4.185   5.3972
  4.182   5.4899
  4.179   5.5723
  4.175   5.5105
  4.172   5.5414
  4.169   5.5105
  4.165   5.5311
  4.162   5.4899
  4.159   5.5208
  4.155   5.5208
  4.152   5.5517
  4.149   5.5620
  4.145   5.6135
  4.142   5.6444
  4.139   5.6753
  4.135   5.6341
  4.132   5.6650
  4.129   5.6856
  4.126   5.6959
  4.122   5.7474
  4.119   5.8298
  4.116   5.8401
  4.112   5.8916
  4.109   5.9225
  4.106   5.9740
  4.103   5.9122
  4.099   5.9328
  4.096   6.0358
  4.093   6.0770
  4.090   5.9946
  4.086   6.0564
  4.083   6.1594
  4.080   6.2006
  4.077   6.2212
  4.074   6.3139
  4.070   6.3860
  4.067   6.4478
  4.064   6.4478
  4.061   6.3654
  4.058   6.3551
  4.055   6.5611
  4.051   6.5920
  4.048   6.6229
  4.045   6.6744
  4.042   6.6641
  4.039   6.6435
  4.036   6.7259
  4.032   6.7568
  4.029   6.7980
  4.026   6.8495
  4.023   6.9216
  4.020   6.9319
  4.017   6.9834
  4.014   6.9319
  4.011   6.9422
  4.008   6.9731
  4.004   7.0555
  4.001   7.0349
  3.998   6.9731
  3.995   6.9216
  3.992   6.9731
  3.989   6.9731
  3.986   7.0040
  3.983   6.9937
  3.980   6.9525
  3.977   6.9422
  3.974   6.9834
  3.971   7.0658
  3.968   7.1276
  3.965   7.0555
  3.962   7.0761
  3.959   7.1070
  3.956   7.2203
  3.953   7.2615
  3.950   7.3439
  3.947   7.3542
  3.944   7.3439
  3.941   7.4057
  3.938   7.4572
  3.935   7.4778
  3.932   7.5293
  3.929   7.4984
  3.926   7.5087
  3.923   7.4675
  3.920   7.5190
  3.917   7.5396
  3.914   7.6014
  3.911   7.5396
  3.908   7.5087
  3.905   7.5705
  3.902   7.6117
  3.899   7.6529
  3.896   7.6529
  3.893   7.6632
  3.890   7.6529
  3.887   7.6426
  3.884   7.5808
  3.882   7.4675
  3.879   7.4160
  3.876   7.2821
  3.873   7.1070
  3.870   6.9731
  3.867   7.2100
  3.864   7.4675
  3.861   7.6323
  3.858   7.6117
  3.856   7.5911
  3.853   7.5911
  3.850   7.6838
  3.847   7.7044
  3.844   7.7559
  3.841   7.7353
  3.838   7.7559
  3.836   7.7250
  3.833   7.7353
  3.830   7.7044
  3.827   7.8074
  3.824   7.8383
  3.822   7.8692
  3.819   7.8486
  3.816   7.7765
  3.813   7.7662
  3.810   7.8898
  3.807   7.8280
  3.805   7.8177
  3.802   7.7971
  3.799   7.8074
  3.796   7.8486
  3.794   7.8589
  3.791   7.7971
  3.788   7.8280
  3.785   7.8280
  3.782   7.8074
  3.780   7.8177
  3.777   7.7559
  3.774   7.7044
  3.771   7.7353
  3.769   7.6529
  3.766   7.6323
  3.763   7.6941
  3.761   7.7147
  3.758   7.6323
  3.755   7.5602
  3.752   7.5911
  3.750   7.6014
  3.747   7.4778
  3.744   7.5087
  3.742   7.5293
  3.739   7.5499
  3.736   7.5087
  3.733   7.5293
  3.731   7.4160
  3.728   7.3233
  3.725   7.3027
  3.723   7.3542
  3.720   7.3748
  3.717   7.3645
  3.715   7.2718
  3.712   7.2924
  3.709   7.2512
  3.707   7.2718
  3.704   7.3027
  3.702   7.2615
  3.699   7.1791
  3.696   7.1276
  3.694   7.1070
  3.691   7.1688
  3.688   7.1688
  3.686   7.1482
  3.683   7.1070
  3.680   7.0658
  3.678   7.0349
  3.675   7.0452
  3.673   7.0040
  3.670   6.9731
  3.667   6.9628
  3.665   6.9834
  3.662   6.9834
  3.660   7.0040
  3.657   6.9731
  3.655   6.9628
  3.652   6.9010
  3.649   6.9319
  3.647   6.8701
  3.644   6.8083
  3.642   6.7774
  3.639   6.8186
  3.637   6.7980
  3.634   6.6950
  3.632   6.6950
  3.629   6.7671
  3.626   6.7156
  3.624   6.6435
  3.621   6.6538
  3.619   6.6847
  3.616   6.6332
  3.614   6.5508
  3.611   6.4993
  3.609   6.4581
  3.606   6.3757
  3.604   6.3448
  3.601   6.3860
  3.599   6.5199
  3.596   6.4993
  3.594   6.3860
  3.591   6.3242
  3.589   6.2418
  3.586   6.1697
  3.584   6.1697
  3.581   6.1491
  3.579   6.1903
  3.576   6.1491
  3.574   6.1182
  3.571   5.9946
  3.569   5.9225
  3.567   5.9740
  3.564   5.9740
  3.562   5.9637
  3.559   5.9946
  3.557   5.9740
  3.554   5.9534
  3.552   5.9328
  3.549   5.9431
  3.547   5.8813
  3.545   5.7680
  3.542   5.7577
  3.540   5.8504
  3.537   5.7577
  3.535   5.7062
  3.533   5.6444
  3.530   5.5620
  3.528   5.5620
  3.525   5.5311
  3.523   5.4384
  3.521   5.4796
  3.518   5.4075
  3.516   5.3148
  3.513   5.2633
  3.511   5.1809
  3.509   5.1088
  3.506   5.1294
  3.504   5.0882
  3.502   5.0264
  3.499   4.9955
  3.497   4.9440
  3.494   4.9440
  3.492   5.0882
  3.490   5.1397
  3.487   5.1088
  3.485   4.9852
  3.483   4.9234
  3.480   4.9955
  3.478   5.0573
  3.476   5.0058
  3.473   4.9852
  3.471   4.9646
  3.469   4.9749
  3.466   4.9234
  3.464   4.8307
  3.462   4.8204
  3.460   4.7586
  3.457   4.6865
  3.455   4.7071
  3.453   4.7483
  3.450   4.8101
  3.448   4.7792
  3.446   4.7174
  3.443   4.6865
  3.441   4.5732
  3.439   4.4187
  3.437   4.4702
  3.434   4.5732
  3.432   4.5526
  3.430   4.4187
  3.428   4.3260
  3.425   4.1715
  3.423   4.0685
  3.421   4.1097
  3.418   4.2024
  3.416   4.2024
  3.414   4.2333
  3.412   4.2333
  3.409   4.2230
  3.407   4.1715
  3.405   4.2127
  3.403   4.1921
  3.401   4.2127
  3.398   4.1921
  3.396   4.2436
  3.394   4.1715
  3.392   4.1509
  3.389   4.1612
  3.387   4.2848
  3.385   4.3363
  3.383   4.2642
  3.381   4.1921
  3.378   4.1612
  3.376   4.0994
  3.374   4.1715
  3.372   4.2127
  3.370   4.2230
  3.367   4.2127
  3.365   4.2848
  3.363   4.2951
  3.361   4.3054
  3.359   4.2024
  3.357   4.1715
  3.354   4.1200
  3.352   4.0994
  3.350   4.1406
  3.348   4.1509
  3.346   4.0994
  3.344   4.0788
  3.341   4.0685
  3.339   4.1303
  3.337   4.1406
  3.335   4.1097
  3.333   4.1406
  3.331   4.1406
  3.329   3.9964
  3.326   3.9964
  3.324   4.1097
  3.322   4.2024
  3.320   4.0170
  3.318   3.8625
  3.316   3.8934
  3.314   3.9449
  3.312   3.8831
  3.309   3.9140
  3.307   3.9449
  3.305   4.0170
  3.303   3.9964
  3.301   3.9346
  3.299   3.8934
  3.297   3.8934
  3.295   3.8110
  3.293   3.8625
  3.291   3.9346
  3.288   3.9861
  3.286   3.9861
  3.284   3.9552
  3.282   3.9243
  3.280   3.9037
  3.278   3.8831
  3.276   3.8007
  3.274   3.6668
  3.272   3.6977
  3.270   3.7492
  3.268   3.7183
  3.266   3.6153
  3.264   3.6359
  3.262   3.6771
  3.259   3.7595
  3.257   3.8110
  3.255   3.8316
  3.253   3.7801
  3.251   3.7595
  3.249   3.7080
  3.247   3.6874
  3.245   3.6050
  3.243   3.5741
  3.241   3.5226
  3.239   3.4917
  3.237   3.5432
  3.235   3.5535
  3.233   3.4711
  3.231   3.5226
  3.229   3.6256
  3.227   3.6462
  3.225   3.5020
  3.223   3.4711
  3.221   3.4299
  3.219   3.4711
  3.217   3.5123
  3.215   3.5329
  3.213   3.5123
  3.211   3.4711
  3.209   3.4299
  3.207   3.4711
  3.205   3.4711
  3.203   3.4402
  3.201   3.2960
  3.199   3.3269
  3.197   3.3784
  3.195   3.4608
  3.193   3.4814
  3.191   3.4402
  3.189   3.3269
  3.187   3.2960
  3.185   3.2651
  3.183   3.2033
  3.182   3.1518
  3.180   3.2239
  3.178   3.3784
  3.176   3.4196
  3.174   3.3063
  3.172   3.2342
  3.170   3.1930
  3.168   3.2033
  3.166   3.2033
  3.164   3.2239
  3.162   3.2239
  3.160   3.2651
  3.158   3.1827
  3.156   3.1518
  3.154   3.1621
  3.152   3.1827
  3.151   3.2342
  3.149   3.2548
  3.147   3.2033
  3.145   3.0900
  3.143   3.0591
  3.141   3.1003
  3.139   3.0694
  3.137   3.0797
  3.135   3.0694
  3.133   2.9870
  3.132   2.9046
  3.130   2.8737
  3.128   2.8016
  3.126   2.8016
  3.124   2.7810
  3.122   2.7913
  3.120   2.8119
  3.118   2.9149
  3.117   2.9561
  3.115   3.0179
  3.113   2.9046
  3.111   2.8222
  3.109   2.8222
  3.107   2.8531
  3.105   2.7913
  3.103   2.7398
  3.102   2.7604
  3.100   2.8428
  3.098   2.8737
  3.096   2.8325
  3.094   2.8222
  3.092   2.6471
  3.091   2.4823
  3.089   2.5956
  3.087   2.7501
  3.085   2.7089
  3.083   2.6059
  3.081   2.7501
  3.079   2.8222
  3.078   2.7604
  3.076   2.7604
  3.074   2.7398
  3.072   2.6059
  3.070   2.5750
  3.069   2.5235
  3.067   2.7192
  3.065   2.8016
  3.063   2.7707
  3.061   2.6368
  3.060   2.6986
  3.058   2.6986
  3.056   2.7089
  3.054   2.6780
  3.052   2.7295
  3.051   2.6883
  3.049   2.6986
  3.047   2.6162
  3.045   2.4514
  3.043   2.6265
  3.042   2.8016
  3.040   2.7707
  3.038   2.7295
  3.036   2.5956
  3.034   2.4926
  3.033   2.5235
  3.031   2.5132
  3.029   2.5544
  3.027   2.5956
  3.026   2.5750
  3.024   2.5338
  3.022   2.6883
  3.020   2.7810
  3.019   2.6471
  3.017   2.6059
  3.015   2.5647
  3.013   2.5132
  3.012   2.4514
  3.010   2.5029
  3.008   2.5647
  3.006   2.7089
  3.005   2.6162
  3.003   2.3278
  3.001   2.3278
  2.999   2.5338
  2.998   2.5544
  2.996   2.5853
  2.994   2.6368
  2.992   2.6986
  2.991   2.5544
  2.989   2.5441
  2.987   2.4926
  2.986   2.4102
  2.984   2.4308
  2.982   2.5132
  2.980   2.3999
  2.979   2.3690
  2.977   2.3999
  2.975   2.5132
  2.974   2.4411
  2.972   2.4514
  2.970   2.4514
  2.968   2.5235
  2.967   2.5853
  2.965   2.5029
  2.963   2.4411
  2.962   2.3587
  2.960   2.1939
  2.958   2.2145
  2.957   2.3381
  2.955   2.4514
  2.953   2.4926
  2.952   2.4926
  2.950   2.4308
  2.948   2.5441
  2.947   2.5544
  2.945   2.5132
  2.943   2.4308
  2.942   2.3690
  2.940   2.2763
  2.938   2.5647
  2.937   2.6986
  2.935   2.6368
  2.933   2.5029
  2.932   2.4823
  2.930   2.2969
  2.928   2.2557
  2.927   2.3278
  2.925   2.5338
  2.923   2.6162
  2.922   2.5647
  2.920   2.5132
  2.918   2.4720
  2.917   2.4926
  2.915   2.6368
  2.913   2.7192
  2.912   2.6059
  2.910   2.3999
  2.909   2.4823
  2.907   2.4720
  2.905   2.5029
  2.904   2.3484
  2.902   2.5029
  2.900   2.6368
  2.899   2.6059
  2.897   2.4514
  2.896   2.5647
  2.894   2.6471
  2.892   2.6986
  2.891   2.6677
  2.889   2.4720
  2.887   2.2557
  2.886   2.5544
  2.884   2.8428
  2.883   2.8840
  2.881   2.8737
  2.879   3.0488
  2.878   3.3681
  2.876   3.6153
  2.875   3.7286
  2.873   3.8213
  2.871   4.2539
  2.870   4.7689
  2.868   4.9440
  2.867   5.1397
  2.865   5.1603
  2.864   4.9131
  2.862   4.4702
  2.860   3.9346
  2.859   3.2239
  2.857   2.9046
  2.856   2.5029
  2.854   2.3072
  2.853   2.3175
  2.851   2.2763
  2.849   2.5029
  2.848   2.9973
  2.846   3.1003
  2.845   3.0076
  2.843   2.9252
  2.842   2.8634
  2.840   2.7604
  2.838   2.6162
  2.837   2.2042
  2.835   1.9673
  2.834   1.9364
  2.832   2.0394
  2.831   2.0703
  2.829   2.0394
  2.828   2.0497
  2.826   2.1218
  2.825   1.9364
  2.823   1.9982
  2.821   1.9364
  2.820   1.9055
  2.818   1.9467
  2.817   1.9261
  2.815   2.0909
  2.814   2.3072
  2.812   2.2248
  2.811   2.1115
  2.809   2.0600
  2.808   2.1630
  2.806   2.2248
  2.805   2.2145
  2.803   2.1321
  2.802   2.2866
  2.800   2.5647
  2.799   2.5853
  2.797   2.3793
  2.796   2.2763
  2.794   2.2042
  2.793   2.3484
  2.791   2.4205
  2.790   2.3072
  2.788   2.2763
  2.787   2.5750
  2.785   2.5132
  2.784   2.4514
  2.782   2.5029
  2.781   2.4411
  2.779   2.2969
  2.778   2.6677
  2.776   2.8016
  2.775   2.7295
  2.773   2.5338
  2.772   2.5132
  2.770   2.5750
  2.769   2.8531
  2.767   2.7604
  2.766   2.6883
  2.764   2.8840
  2.763   2.7707
  2.761   2.7295
  2.760   2.9149
  2.758   2.9355
  2.757   2.8634
  2.756   2.7089
  2.754   2.7398
  2.753   3.0900
  2.751   3.3063
  2.750   3.2033
  2.748   3.2651
  2.747   3.2136
  2.745   3.3269
  2.744   3.2960
  2.742   3.5123
  2.741   3.5123
  2.740   3.3887
  2.738   3.1621
  2.737   3.2548
  2.735   3.5226
  2.734   3.7183
  2.732   3.8316
  2.731   3.9552
  2.729   3.9346
  2.728   3.8316
  2.727   3.8934
  2.725   3.9655
  2.724   3.9037
  2.722   4.1303
  2.721   4.0994
  2.719   4.0170
  2.718   4.0685
  2.717   4.3878
  2.715   4.3363
  2.714   4.5835
  2.712   4.7792
  2.711   4.9234
  2.709   5.1294
  2.708   5.2942
  2.707   5.4487
  2.705   5.5105
  2.704   5.4384
  2.702   5.6856
  2.701   6.1903
  2.700   6.3654
  2.698   6.4169
  2.697   6.7053
  2.695   6.8083
  2.694   7.0555
  2.693   7.3748
  2.691   7.6838
  2.690   7.7662
  2.688   7.7147
  2.687   7.5499
  2.686   7.9413
  2.684   8.1576
  2.683   8.4254
  2.681   8.6932
  2.680   8.7241
  2.679   8.8065
  2.677   8.7653
  2.676   8.7241
  2.675   9.0331
  2.673   9.0949
  2.672   9.3112
  2.670   9.7335
  2.669   9.8983
  2.668   9.8468
  2.666  10.0425
  2.665  10.2176
  2.664  10.3927
  2.662  10.4030
  2.661  10.6399
  2.659  10.5678
  2.658  10.6090
  2.657  10.7326
  2.655  10.9798
  2.654  11.2064
  2.653  11.2991
  2.651  11.4227
  2.650  11.7214
  2.649  12.1643
  2.647  12.4836
  2.646  12.4321
  2.645  12.4733
  2.643  12.7823
  2.642  12.9986
  2.640  12.7205
  2.639  12.5351
  2.638  12.6278
  2.636  12.9677
  2.635  13.0295
  2.634  12.8853
  2.632  12.8750
  2.631  12.6896
  2.630  12.5660
  2.628  12.5248
  2.627  12.3394
  2.626  12.4733
  2.624  12.5248
  2.623  12.4836
  2.622  12.3600
  2.620  12.3806
  2.619  12.2673
  2.618  12.4939
  2.617  12.6484
  2.615  12.5557
  2.614  12.2776
  2.613  12.1334
  2.611  11.8965
  2.610  11.9274
  2.609  11.9274
  2.607  11.8553
  2.606  11.7523
  2.605  11.7729
  2.603  11.7523
  2.602  11.7729
  2.601  11.7729
  2.599  11.8141
  2.598  11.8759
  2.597  11.6390
  2.596  11.4536
  2.594  11.5463
  2.593  11.2785
  2.592  11.0828
  2.590  10.8974
  2.589  10.8356
  2.588  10.7944
  2.586  10.8665
  2.585  10.7120
  2.584  10.6193
  2.583  10.6193
  2.581  10.4957
  2.580  10.6193
  2.579  10.9077
  2.577  10.9901
  2.576  10.6708
  2.575  10.6914
  2.574  10.9592
  2.572  10.7223
  2.571  10.6605
  2.570  10.7635
  2.569  11.0416
  2.567  11.0004
  2.566  10.8047
  2.565  10.6605
  2.563  10.8253
  2.562  10.6605
  2.561  10.5472
  2.560  10.7841
  2.558  10.8665
  2.557  10.8665
  2.556  10.8665
  2.555  10.8768
  2.553  11.1446
  2.552  11.0107
  2.551  11.1034
  2.550  11.2888
  2.548  11.3609
  2.547  11.1240
  2.546  11.1858
  2.545  10.9077
  2.543  10.7017
  2.542  10.9901
  2.541  10.9695
  2.540  10.7017
  2.538  10.5884
  2.537  10.4751
  2.536  10.4648
  2.535  10.4442
  2.533  10.4339
  2.532  10.3721
  2.531  10.3309
  2.530  10.1249
  2.528  10.0940
  2.527   9.9086
  2.526   9.7026
  2.525   9.3730
  2.524   9.3524
  2.522   9.1979
  2.521   8.9816
  2.520   8.8065
  2.519   8.5284
  2.517   8.2400
  2.516   8.0649
  2.515   8.0134
  2.514   8.0752
  2.513   8.1885
  2.511   8.3636
  2.510   8.4769
  2.509   8.5902
  2.508   8.4769
  2.506   8.5593
  2.505   8.7550
  2.504   9.1361
  2.503   9.4657
  2.502   9.5584
  2.500   9.5481
  2.500   9.5481
  2.496   9.4489
  2.492  10.5306
  2.488  10.4093
  2.484  10.3132
  2.480  10.6001
  2.476  10.4310
  2.472  10.1568
  2.468  10.2971
  2.464  10.3447
  2.460  11.1465
  2.456  10.7452
  2.452  11.0149
  2.448  11.0932
  2.444  11.0281
  2.440  10.7333
  2.436  10.3174
  2.432  10.6031
  2.428  10.8640
  2.424  11.4115
  2.420  11.5210
  2.416  12.0609
  2.412  12.3295
  2.408  12.4139
  2.404  12.8139
  2.400  13.1208
  2.396  13.0538
  2.392  13.7761
  2.388  14.5679
  2.384  15.6900
  2.380  16.6196
  2.376  17.5785
  2.372  18.6583
  2.368  19.3569
  2.364  19.4983
  2.360  19.8426
  2.356  19.9326
  2.352  20.0284
  2.348  19.8525
  2.344  19.2024
  2.340  18.4020
  2.336  17.7208
  2.332  17.0137
  2.328  16.2713
  2.324  16.0902
  2.320  16.2723
  2.316  16.7543
  2.312  18.0146
  2.308  19.1425
  2.304  20.0265
  2.300  20.7466
  2.296  21.4744
  2.292  22.0735
  2.288  22.3381
  2.284  22.4212
  2.280  22.5925
  2.276  22.6357
  2.272  22.8243
  2.268  22.9210
  2.264  22.8913
  2.260  22.9070
  2.256  22.9379
  2.252  22.8680
  2.248  22.8366
  2.244  22.7456
  2.240  22.3601
  2.236  21.9020
  2.232  21.1398
  2.228  19.8623
  2.224  18.4270
  2.220  17.0741
  2.216  16.0312
  2.212  15.3999
  2.208  15.0987
  2.204  15.0467
  2.200  15.0060
  2.196  14.6768
  2.192  14.1984
  2.188  13.6872
  2.184  13.2316
  2.180  13.0391
  2.176  13.0113
  2.172  12.8993
  2.168  12.8765
  2.164  12.9678
  2.160  13.0073
  2.156  13.2498
  2.152  13.5387
  2.148  13.9039
  2.144  14.2313
  2.140  14.6080
  2.136  15.0169
  2.132  15.4509
  2.128  16.0448
  2.124  16.7592
  2.120  17.5248
  2.116  18.3022
  2.112  19.0898
  2.108  19.6845
  2.104  20.1687
  2.100  20.6478
  2.096  21.0454
  2.092  21.2996
  2.088  21.5057
  2.084  21.6954
  2.080  21.7443
  2.076  21.7603
  2.072  21.8024
  2.068  21.8572
  2.064  21.8993
  2.060  21.9946
  2.056  22.1458
  2.052  22.3375
  2.048  22.5542
  2.044  22.7425
  2.040  22.8743
  2.036  22.9766
  2.032  23.1533
  2.028  23.2179
  2.024  23.2018
  2.020  23.2203
  2.016  23.1789
  2.012  23.2144
  2.008  23.3271
  2.004  23.5049
  2.000  23.7473
  1.996  23.9760
  1.992  24.1852
  1.988  24.2839
  1.984  24.3147
  1.980  24.2712
  1.976  24.1715
  1.972  24.0247
  1.968  23.8839
  1.964  23.7537
  1.960  23.6308
  1.956  23.5685
  1.952  23.5155
  1.948  23.5027
  1.944  23.4497
  1.940  23.3756
  1.936  23.3082
  1.932  23.1423
  1.928  23.0533
  1.924  23.0141
  1.920  22.9725
  1.916  23.0044
  1.912  23.1721
  1.908  23.5167
  1.904  24.0629
  1.900  24.8032
  1.896  25.7488
  1.892  26.7133
  1.888  27.6881
  1.884  28.7487
  1.880  29.8759
  1.876  31.0090
  1.872  32.0572
  1.868  32.9151
  1.864  33.5273
  1.860  33.9925
  1.856  34.4071
  1.852  34.7510
  1.848  35.0203
  1.844  35.2284
  1.840  35.4027
  1.836  35.5425
  1.832  35.6754
  1.828  35.7788
  1.824  35.8135
  1.820  35.8187
  1.816  35.7872
  1.812  35.6683
  1.808  35.4219
  1.804  34.9972
  1.800  34.3381
  1.796  33.4455
  1.792  32.3883
  1.788  31.3085
  1.784  30.2901
  1.780  29.3497
  1.776  28.5717
  1.772  28.0343
  1.768  27.8246
  1.764  27.9114
  1.760  28.2441
  1.756  28.7432
  1.752  29.4121
  1.748  30.1945
  1.744  31.0282
  1.740  31.9047
  1.736  32.8089
  1.732  33.6797
  1.728  34.4808
  1.724  35.2128
  1.720  35.8052
  1.716  36.2941
  1.712  36.6770
  1.708  36.9446
  1.704  37.1652
  1.700  37.3657
  1.696  37.5357
  1.692  37.7086
  1.688  37.8795
  1.684  38.0503
  1.680  38.2063
  1.676  38.3786
  1.672  38.5422
  1.668  38.6762
  1.664  38.7819
  1.660  38.8606
  1.656  38.9262
  1.652  38.9895
  1.648  39.0456
  1.644  39.1036
  1.640  39.1265
  1.636  39.1315
  1.632  39.1214
  1.628  39.0936
  1.624  39.0717
  1.620  39.0276
  1.616  39.0084
  1.612  39.0137
  1.608  38.9763
  1.604  38.9096
  1.600  38.8298
  1.596  38.8141
  1.592  38.8375
  1.588  38.7924
  1.584  38.7644
  1.580  38.7430
  1.576  38.7623
  1.572  38.7215
  1.568  38.6668
  1.564  38.6294
  1.560  38.5790
  1.556  38.5083
  1.552  38.3619
  1.548  38.2377
  1.544  38.0594
  1.540  37.8683
  1.536  37.6989
  1.532  37.4493
  1.528  37.2187
  1.524  37.0217
  1.520  36.6332
  1.516  36.1503
  1.512  35.4461
  1.508  34.6658
  1.504  33.7863
  1.500  33.0000
  1.496  32.2777
  1.492  31.1904
  1.488  29.0586
  1.484  26.1048
  1.480  23.8368
  1.476  23.9936
  1.472  25.9268
  1.468  27.7529
  1.464  28.6271
  1.460  29.0574
  1.456  29.5542
  1.452  30.2947
  1.448  30.9660
  1.444  31.1855
  1.440  30.5932
  1.436  29.0751
  1.432  27.3352
  1.428  26.7418
  1.424  28.2926
  1.420  31.0654
  1.416  33.3474
  1.412  34.5908
  1.408  35.4066
  1.404  36.2203
  1.400  37.0744
  1.396  37.8416
  1.392  38.5179
  1.388  39.3041
  1.384  40.0963
  1.380  40.8514
  1.376  41.5375
  1.372  42.0863
  1.368  42.3715
  1.364  42.4209
  1.360  42.3023
  1.356  42.3337
  1.352  42.4183
  1.348  42.5410
  1.344  42.5819
  1.340  42.6401
  1.336  42.9263
  1.332  43.4685
  1.328  43.9262
  1.324  44.2024
  1.320  44.4863
  1.316  44.8503
  1.312  45.1982
  1.308  45.3730
  1.304  45.4494
  1.300  45.5362
  1.296  45.4893
  1.292  45.3906
  1.288  45.0850
  1.284  44.4947
  1.280  43.8720
  1.276  43.1747
  1.272  42.6647
  1.268  42.5044
  1.264  42.7501
  1.260  43.4125
  1.256  44.0865
  1.252  44.4290
  1.248  44.6201
  1.244  44.8397
  1.240  44.9336
  1.236  45.1125
  1.232  45.2518
  1.228  45.4408
  1.224  45.7129
  1.220  45.9258
  1.216  46.0573
  1.212  46.1280
  1.208  46.2079
  1.204  46.2897
  1.200  46.3824
  1.196  46.4188
  1.192  46.4786
  1.188  46.5351
  1.184  46.4990
  1.180  46.5461
  1.176  46.5840
  1.172  46.5949
  1.168  46.5934
  1.164  46.5980
  1.160  46.6017
  1.156  46.6280
  1.152  46.7015
  1.148  46.8142
  1.144  46.8956
  1.140  47.0462
  1.136  47.1723
  1.132  47.2708
  1.128  47.2641
  1.124  47.2835
  1.120  47.3070
  1.116  47.2725
  1.112  47.3142
  1.108  47.3376
  1.104  47.3477
  1.100  47.3857
  1.096  47.4122
  1.092  47.4729
  1.088  47.4416
  1.084  47.4407
  1.080  47.4513
  1.076  47.5028
  1.072  47.5650
  1.068  47.5340
  1.064  47.4946
  1.060  47.4752
  1.056  47.5192
  1.052  47.5394
  1.048  47.4724
  1.044  47.4182
  1.040  47.4062
  1.036  47.3667
  1.032  47.3132
  1.028  47.1239
  1.024  46.8764
  1.020  46.5992
  1.016  46.3469
  1.012  46.1040
  1.008  45.9391
  1.004  45.8908
  1.000  45.8920
  0.996  45.9497
  0.992  46.0707
  0.988  46.2511
  0.984  46.3996
  0.980  46.5450
  0.976  46.7235
  0.972  46.8618
  0.968  46.9639
  0.964  47.0627
  0.960  47.1569
  0.956  47.2547
  0.952  47.3264
  0.948  47.4287
  0.944  47.5456
  0.940  47.6420
  0.936  47.7006
  0.932  47.7145
  0.928  47.7145
  0.924  47.7124
  0.920  47.7255
  0.916  47.7963
  0.912  47.9129
  0.908  47.9748
  0.904  47.9693
  0.900  47.9677
  0.896  47.9740
  0.892  47.9984
  0.888  47.9842
  0.884  47.9592
  0.880  48.0230
  0.876  48.0180
  0.872  48.0175
  0.868  47.9232
  0.864  47.9184
  0.860  47.9114
  0.856  47.8507
  0.852  47.6921
  0.848  47.6270
  0.844  47.5826
  0.840  47.5739
  0.836  47.4269
  0.832  47.4534
  0.828  47.4739
  0.824  47.3385
  0.820  47.3072
  0.816  47.4501
  0.812  47.2894
  0.808  47.2746
  0.804  47.2426
  0.800  47.3127
  0.796  47.2334
  0.792  47.0289
  0.788  47.0359
  0.784  47.0135
  0.780  47.0173
  0.776  46.9598
  0.772  46.8913
  0.768  46.8803
  0.764  46.8044
  0.760  46.7715
  0.756  46.7912
  0.752  46.7880
  0.748  46.7481
  0.744  46.6569
  0.740  46.6332
  0.736  46.6142
  0.732  46.4845
  0.728  46.4105
  0.724  46.4082
  0.720  46.3528
  0.716  46.2751
  0.712  46.1712
  0.708  46.0417
  0.704  45.9802
  0.700  45.8574
  0.696  45.7411
  0.692  45.6633
  0.688  45.5343
  0.684  45.4815
  0.680  45.4233
  0.676  45.3266
  0.672  45.2668
  0.668  45.1938
  0.664  45.1049
  0.660  45.0197
  0.656  44.9575
  0.652  44.9065
  0.648  44.8995
  0.644  44.7785
  0.640  44.6990
  0.636  44.6249
  0.632  44.5210
  0.628  44.4298
  0.624  44.3588
  0.620  44.2812
  0.616  44.2178
  0.612  44.1326
  0.608  44.0003
  0.604  43.8618
  0.600  43.7535
  0.596  43.6427
  0.592  43.5435
  0.588  43.3878
  0.584  43.2462
  0.580  43.1052
  0.576  42.8813
  0.572  42.6759
  0.568  42.4793
  0.564  42.2512
  0.560  42.0144
  0.556  41.7789
  0.552  41.5456
  0.548  41.3041
  0.544  41.0676
  0.540  40.8475
  0.536  40.6293
  0.532  40.4042
  0.528  40.1746
  0.524  39.9557
  0.520  39.7344
  0.516  39.5023
  0.512  39.2943
  0.508  39.0742
  0.504  38.8915
  0.500  38.7023
  0.496  38.4708
  0.492  38.2593
  0.488  38.0498
  0.484  37.8511
  0.480  37.6749
  0.476  37.4725
  0.472  37.3232
  0.468  37.1675
  0.464  37.0077
  0.460  36.8655
  0.456  36.6970
  0.452  36.5071
  0.448  36.2538
  0.444  35.9647
  0.440  35.6926
  0.436  35.3988
  0.432  35.0580
  0.428  34.7551
  0.424  34.4994
  0.420  34.2492
  0.416  33.9730
  0.412  33.6832
  0.408  33.4022
  0.404  33.0827
  0.400  32.7541
  0.000   0.0000
  0.000   0.0000
  0.000   0.0000
  0.000   0.0000
  0.000   0.0000
  0.000   0.0000
  0.000   0.0000
  0.000   0.0000
  0.000   0.0000
  0.000   0.0000
  0.000   0.0000
  0.000   0.0000
  0.000   0.0000
  0.000   0.0000
  0.000   0.0000
  0.000   0.0000
  0.000   0.0000
  0.000   0.0000
  0.000   0.0000
  0.000   0.0000
  0.000   0.0000
  0.000   0.0000
  0.000   0.0000
  0.000   0.0000
  0.000   0.0000
  0.000   0.0000
  0.000   0.0000
  0.000   0.0000
  0.000   0.0000
  0.000   0.0000
  0.000   0.0000
  0.000   0.0000
  0.000   0.0000
  0.000   0.0000
  0.000   0.0000
  0.000   0.0000
  0.000   0.0000
  0.000   0.0000
  0.000   0.0000
  0.000   0.0000
  0.000   0.0000
  0.000   0.0000
  0.000   0.0000
  0.000   0.0000
  0.000   0.0000
  0.000   0.0000
  0.000   0.0000
  0.000   0.0000
  0.000   0.0000
  0.000   0.0000
  0.000   0.0000
  0.000   0.0000
  0.000   0.0000
  0.000   0.0000
  0.000   0.0000
  0.000   0.0000
  0.000   0.0000
  0.000   0.0000
  0.000   0.0000
  0.000   0.0000
  0.000   0.0000
  0.000   0.0000
  0.000   0.0000
  0.000   0.0000
  0.000   0.0000
  0.000   0.0000
  0.000   0.0000
  0.000   0.0000
  0.000   0.0000
  0.000   0.0000
  0.000   0.0000
  0.000   0.0000
  0.000   0.0000
  0.000   0.0000
  0.000   0.0000
  0.000   0.0000
  0.000   0.0000
  0.000   0.0000
  0.000   0.0000
  0.000   0.0000
  0.000   0.0000
  0.000   0.0000
  0.000   0.0000
  0.000   0.0000
  0.000   0.0000
  0.000   0.0000
  0.000   0.0000
  0.000   0.0000
  0.000   0.0000
  0.000   0.0000
  0.000   0.0000
  0.000   0.0000
  0.000   0.0000
  0.000   0.0000
  0.000   0.0000
  0.000   0.0000
  0.000   0.0000
  0.000   0.0000
  0.000   0.0000
  0.000   0.0000
  0.000   0.0000
  0.000   0.0000
  0.000   0.0000
  0.000   0.0000
  0.000   0.0000
  0.000   0.0000
  0.000   0.0000
  0.000   0.0000
  0.000   0.0000
  0.000   0.0000
  0.000   0.0000
  0.000   0.0000
  0.000   0.0000
  0.000   0.0000
  0.000   0.0000
  0.000   0.0000
  0.000   0.0000
  0.000   0.0000
  0.000   0.0000
  0.000   0.0000
  0.000   0.0000
  0.000   0.0000
  0.000   0.0000
  0.000   0.0000
  0.000   0.0000
  0.000   0.0000
  0.000   0.0000
  0.000   0.0000
  0.000   0.0000
  0.000   0.0000
  0.000   0.0000
  0.000   0.0000
  0.000   0.0000
  0.000   0.0000
  0.000   0.0000
  0.000   0.0000
  0.000   0.0000
  0.000   0.0000
  0.000   0.0000
  0.000   0.0000
  0.000   0.0000
  0.000   0.0000
  0.000   0.0000
  0.000   0.0000
  0.000   0.0000
  0.000   0.0000
  0.000   0.0000
  0.000   0.0000
  0.000   0.0000
  0.000   0.0000
  0.000   0.0000
  0.000   0.0000
  0.000   0.0000
  0.000   0.0000
  0.000   0.0000
  0.000   0.0000
  0.000   0.0000
  0.000   0.0000
  0.000   0.0000
  0.000   0.0000
  0.000   0.0000
  0.000   0.0000
  0.000   0.0000
  0.000   0.0000
  0.000   0.0000
  0.000   0.0000
  0.000   0.0000
  0.000   0.0000
  0.000   0.0000
  0.000   0.0000
  0.000   0.0000
  0.000   0.0000
  0.000   0.0000
  0.000   0.0000
  0.000   0.0000
  0.000   0.0000
  0.000   0.0000
  0.000   0.0000
  0.000   0.0000
  0.000   0.0000
  0.000   0.0000
  0.000   0.0000
  0.000   0.0000
  0.000   0.0000
  0.000   0.0000
  0.000   0.0000
  0.000   0.0000
  0.000   0.0000
  0.000   0.0000
  0.000   0.0000
  0.000   0.0000
  0.000   0.0000
  0.000   0.0000
  0.000   0.0000
  0.000   0.0000
  0.000   0.0000
  0.000   0.0000
  0.000   0.0000
  0.000   0.0000
  0.000   0.0000
  0.000   0.0000
  0.000   0.0000
  0.000   0.0000
  0.000   0.0000
  0.000   0.0000
  0.000   0.0000
  0.000   0.0000
  0.000   0.0000
  0.000   0.0000
  0.000   0.0000
  0.000   0.0000
  0.000   0.0000
  0.000   0.0000
  0.000   0.0000
  0.000   0.0000
  0.000   0.0000
  0.000   0.0000
  0.000   0.0000
  0.000   0.0000
  0.000   0.0000
  0.000   0.0000
  0.000   0.0000
  0.000   0.0000
  0.000   0.0000
  0.000   0.0000
  0.000   0.0000
  0.000   0.0000
  0.000   0.0000
  0.000   0.0000
  0.000   0.0000
  0.000   0.0000
  0.000   0.0000
  0.000   0.0000
  0.000   0.0000
  0.000   0.0000
  0.000   0.0000
  0.000   0.0000
  0.000   0.0000
  0.000   0.0000
  0.000   0.0000
  0.000   0.0000
  0.000   0.0000
  0.000   0.0000
  0.000   0.0000
  0.000   0.0000
  0.000   0.0000
  0.000   0.0000
  0.000   0.0000
  0.000   0.0000
  0.000   0.0000
  0.000   0.0000
  0.000   0.0000
  0.000   0.0000
  0.000   0.0000
  0.000   0.0000
  0.000   0.0000
  0.000   0.0000
  0.000   0.0000
  0.000   0.0000
  0.000   0.0000
  0.000   0.0000
  0.000   0.0000
  0.000   0.0000
  0.000   0.0000
  0.000   0.0000
  0.000   0.0000
  0.000   0.0000
  0.000   0.0000
  0.000   0.0000
  0.000   0.0000
  0.000   0.0000
  0.000   0.0000
  0.000   0.0000
  0.000   0.0000
  0.000   0.0000
  0.000   0.0000
  0.000   0.0000
  0.000   0.0000
  0.000   0.0000
  0.000   0.0000
  0.000   0.0000
  0.000   0.0000
  0.000   0.0000
  0.000   0.0000
  0.000   0.0000
  0.000   0.0000
  0.000   0.0000
  0.000   0.0000
  0.000   0.0000
  0.000   0.0000
  0.000   0.0000
  0.000   0.0000
  0.000   0.0000
  0.000   0.0000
  0.000   0.0000
  0.000   0.0000
  0.000   0.0000
  0.000   0.0000
  0.000   0.0000
  0.000   0.0000
  0.000   0.0000
  0.000   0.0000
  0.000   0.0000
  0.000   0.0000
  0.000   0.0000
  0.000   0.0000
  0.000   0.0000
  0.000   0.0000
  0.000   0.0000
  0.000   0.0000
  0.000   0.0000
  0.000   0.0000
  0.000   0.0000
  0.000   0.0000
  0.000   0.0000
  0.000   0.0000
  0.000   0.0000
  0.000   0.0000
  0.000   0.0000
  0.000   0.0000
  0.000   0.0000
  0.000   0.0000
  0.000   0.0000
  0.000   0.0000
  0.000   0.0000
  0.000   0.0000
  0.000   0.0000
  0.000   0.0000
  0.000   0.0000
  0.000   0.0000
  0.000   0.0000
  0.000   0.0000
  0.000   0.0000
  0.000   0.0000
  0.000   0.0000
  0.000   0.0000
  0.000   0.0000
  0.000   0.0000
  0.000   0.0000
  0.000   0.0000
  0.000   0.0000
  0.000   0.0000
  0.000   0.0000
  0.000   0.0000
  0.000   0.0000
  0.000   0.0000
  0.000   0.0000
  0.000   0.0000
  0.000   0.0000
  0.000   0.0000
  0.000   0.0000
  0.000   0.0000
  0.000   0.0000
  0.000   0.0000
  0.000   0.0000
  0.000   0.0000
  0.000   0.0000
  0.000   0.0000
  0.000   0.0000
  0.000   0.0000
  0.000   0.0000
  0.000   0.0000
  0.000   0.0000
  0.000   0.0000
  0.000   0.0000
  0.000   0.0000
  0.000   0.0000
  0.000   0.0000
  0.000   0.0000
  0.000   0.0000
  0.000   0.0000
  0.000   0.0000
  0.000   0.0000
  0.000   0.0000
  0.000   0.0000
  0.000   0.0000
  0.000   0.0000
  0.000   0.0000
  0.000   0.0000
  0.000   0.0000
  0.000   0.0000
  0.000   0.0000
  0.000   0.0000
  0.000   0.0000
  0.000   0.0000
  0.000   0.0000
  0.000   0.0000
  0.000   0.0000
  0.000   0.0000
  0.000   0.0000
  0.000   0.0000
  0.000   0.0000
  0.000   0.0000
  0.000   0.0000
  0.000   0.0000
  0.000   0.0000
  0.000   0.0000
  0.000   0.0000
  0.000   0.0000
  0.000   0.0000
  0.000   0.0000
  0.000   0.0000
  0.000   0.0000
  0.000   0.0000
  0.000   0.0000
  0.000   0.0000
  0.000   0.0000
  0.000   0.0000
  0.000   0.0000
  0.000   0.0000
  0.000   0.0000
  0.000   0.0000
  0.000   0.0000
  0.000   0.0000
  0.000   0.0000
  0.000   0.0000
  0.000   0.0000
  0.000   0.0000
  0.000   0.0000
  0.000   0.0000
  0.000   0.0000
  0.000   0.0000
  0.000   0.0000
  0.000   0.0000
  0.000   0.0000
  0.000   0.0000
  0.000   0.0000
  0.000   0.0000
  0.000   0.0000
  0.000   0.0000
  0.000   0.0000
  0.000   0.0000
  0.000   0.0000
  0.000   0.0000
  0.000   0.0000
  0.000   0.0000
  0.000   0.0000
  0.000   0.0000
  0.000   0.0000
  0.000   0.0000
  0.000   0.0000
  0.000   0.0000
  0.000   0.0000
  0.000   0.0000
  0.000   0.0000
  0.000   0.0000
  0.000   0.0000
  0.000   0.0000
  0.000   0.0000
  0.000   0.0000
  0.000   0.0000
  0.000   0.0000
  0.000   0.0000
  0.000   0.0000
  0.000   0.0000
  0.000   0.0000
  0.000   0.0000
  0.000   0.0000
  0.000   0.0000
  0.000   0.0000
  0.000   0.0000
  0.000   0.0000
  0.000   0.0000
  0.000   0.0000
  0.000   0.0000
  0.000   0.0000
  0.000   0.0000
  0.000   0.0000
  0.000   0.0000
  0.000   0.0000
  0.000   0.0000
  0.000   0.0000
  0.000   0.0000
  0.000   0.0000
  0.000   0.0000
  0.000   0.0000
  0.000   0.0000
  0.000   0.0000
  0.000   0.0000
  0.000   0.0000
  0.000   0.0000
  0.000   0.0000
  0.000   0.0000
  0.000   0.0000
  0.000   0.0000
  0.000   0.0000
  0.000   0.0000
  0.000   0.0000
  0.000   0.0000
  0.000   0.0000
  0.000   0.0000
  0.000   0.0000
  0.000   0.0000
  0.000   0.0000
  0.000   0.0000
  0.000   0.0000
  0.000   0.0000
  0.000   0.0000
  0.000   0.0000
  0.000   0.0000
  0.000   0.0000
  0.000   0.0000
  0.000   0.0000
  0.000   0.0000
  0.000   0.0000
  0.000   0.0000
  0.000   0.0000
  0.000   0.0000
  0.000   0.0000
  0.000   0.0000
  0.000   0.0000
  0.000   0.0000
  0.000   0.0000
  0.000   0.0000
  0.000   0.0000
  0.000   0.0000
  0.000   0.0000
  0.000   0.0000
  0.000   0.0000
  0.000   0.0000
  0.000   0.0000
  0.000   0.0000
  0.000   0.0000
  0.000   0.0000
  0.000   0.0000
