Name: Unaltered volcanic tuff?
Type: Rock
Class: Igneous
Subclass: Mafic
Particle Size: Whole rock chips
Sample No.: Cup9
Owner: USGS
Wavelength range: 0.40 - 14.05 um
Origin: Cuprite, Nevada

Description: Unaltered volcanic tuff ???  Dark brown gray





Measurement: Directional Hemispherical Reflectance
First Column: X
Second Column: Y
X Units: Wavelength (micrometers)
Y Units: Reflectance (percent)
First X Value: 14.05105
Last X Value: 0.40000
Number of X Values: 2756
Additional Information: None

 14.051   2.3896
 14.013   2.4514
 13.975   2.4926
 13.938   2.2866
 13.900   2.4514
 13.863   2.3690
 13.826   2.3896
 13.790   2.2866
 13.753   2.2248
 13.717   2.2454
 13.680   2.3175
 13.644   2.3072
 13.609   2.4514
 13.573   2.3381
 13.538   2.2557
 13.502   2.2763
 13.467   2.4102
 13.432   2.4411
 13.398   2.5647
 13.363   2.5544
 13.329   2.6059
 13.295   2.6368
 13.261   2.6265
 13.227   2.4720
 13.193   2.5544
 13.160   2.5956
 13.126   2.5956
 13.093   2.5544
 13.060   2.6265
 13.027   2.6368
 12.995   2.6574
 12.962   2.6986
 12.930   2.9355
 12.898   2.9149
 12.866   2.8325
 12.834   2.7913
 12.802   2.8325
 12.771   2.7604
 12.739   2.7398
 12.708   2.6986
 12.677   2.8119
 12.646   2.7810
 12.616   2.7707
 12.585   2.7192
 12.554   2.8016
 12.524   2.7707
 12.494   2.7707
 12.464   2.7501
 12.434   2.8222
 12.404   2.8737
 12.375   2.9458
 12.345   2.9664
 12.316   3.1209
 12.287   3.1827
 12.258   3.1621
 12.229   3.0797
 12.200   3.1827
 12.171   3.2445
 12.143   3.3166
 12.115   3.4093
 12.086   3.5020
 12.058   3.4299
 12.030   3.4814
 12.002   3.5123
 11.975   3.6462
 11.947   3.7286
 11.920   3.8110
 11.892   3.7801
 11.865   3.8419
 11.838   3.8934
 11.811   3.9758
 11.784   3.9861
 11.757   4.0685
 11.731   4.0891
 11.704   4.0479
 11.678   3.9964
 11.652   4.1509
 11.626   4.2230
 11.600   4.2642
 11.574   4.3157
 11.548   4.4702
 11.522   4.4805
 11.497   4.5938
 11.471   4.7277
 11.446   4.9543
 11.421   5.0367
 11.396   5.0985
 11.371   5.0161
 11.346   4.9337
 11.321   4.8101
 11.297   4.8410
 11.272   4.8307
 11.248   4.8822
 11.223   4.9131
 11.199   4.9028
 11.175   4.9337
 11.151   4.9543
 11.127   5.0058
 11.103   5.1500
 11.079   5.1603
 11.056   5.1912
 11.032   5.2427
 11.009   5.2839
 10.985   5.2736
 10.962   5.3148
 10.939   5.3560
 10.916   5.3354
 10.893   5.1912
 10.870   5.1706
 10.848   5.2221
 10.825   5.2324
 10.802   5.1294
 10.780   5.2015
 10.758   5.2839
 10.735   5.3560
 10.713   5.3457
 10.691   5.3766
 10.669   5.4178
 10.647   5.5105
 10.625   5.5414
 10.604   5.5723
 10.582   5.6135
 10.560   5.7680
 10.539   5.7886
 10.518   5.9122
 10.496   6.0358
 10.475   6.1388
 10.454   6.2727
 10.433   6.4890
 10.412   6.6229
 10.391   6.7362
 10.370   6.9113
 10.350   7.0658
 10.329   7.1482
 10.309   7.3233
 10.288   7.4572
 10.268   7.6632
 10.247   7.8074
 10.227   8.0340
 10.207   8.1267
 10.187   8.3430
 10.167   8.5902
 10.147   8.7859
 10.127   8.9301
 10.108   9.1773
 10.088   9.2700
 10.068   9.4142
 10.049   9.5584
 10.029   9.7335
 10.010   9.9395
  9.991  10.2073
  9.972  10.4236
  9.952  10.5781
  9.933  10.7326
  9.914  10.9695
  9.895  11.0828
  9.877  11.2579
  9.858  11.4536
  9.839  11.5772
  9.821  11.6184
  9.802  11.8347
  9.783  11.9583
  9.765  12.0922
  9.747  12.2467
  9.728  12.3806
  9.710  12.5042
  9.692  12.6175
  9.674  12.7514
  9.656  12.9677
  9.638  13.0810
  9.620  13.0501
  9.602  13.0501
  9.585  13.1737
  9.567  13.1840
  9.549  13.0913
  9.532  13.0192
  9.514  13.0398
  9.497  12.9265
  9.479  12.8441
  9.462  12.7205
  9.445  12.6587
  9.428  12.5248
  9.411  12.3703
  9.394  12.1952
  9.377  12.1025
  9.360  11.8862
  9.343  11.7214
  9.326  11.6390
  9.309  11.5978
  9.293  11.4742
  9.276  11.4433
  9.259  11.4021
  9.243  11.4536
  9.226  11.3815
  9.210  11.3197
  9.194  11.2785
  9.178  11.2785
  9.161  11.2888
  9.145  11.2888
  9.129  11.1652
  9.113  11.1549
  9.097  11.1961
  9.081  11.1858
  9.065  11.1858
  9.049  11.2785
  9.034  11.1961
  9.018  11.0519
  9.002  10.9901
  8.987  10.9798
  8.971  10.8253
  8.956  10.7017
  8.940  10.6502
  8.925  10.6296
  8.909  10.5163
  8.894  10.4648
  8.879  10.3309
  8.864  10.1455
  8.849   9.9395
  8.834   9.8365
  8.819   9.7232
  8.804   9.6202
  8.789   9.4245
  8.774   9.2803
  8.759   9.1464
  8.744   9.0125
  8.730   8.7653
  8.715   8.6314
  8.700   8.4975
  8.686   8.3121
  8.671   8.0237
  8.657   7.9001
  8.642   7.7250
  8.628   7.4572
  8.614   7.2409
  8.599   7.1585
  8.585   6.9628
  8.571   6.8289
  8.557   6.6023
  8.543   6.4272
  8.529   6.3345
  8.515   6.2109
  8.501   6.0152
  8.487   5.8401
  8.473   5.6238
  8.459   5.4178
  8.445   5.1912
  8.431   5.0161
  8.418   4.8204
  8.404   4.5526
  8.391   4.2539
  8.377   4.1097
  8.363   4.1097
  8.350   4.1200
  8.337   4.0582
  8.323   4.0685
  8.310   4.0376
  8.297   3.9655
  8.283   3.8831
  8.270   3.8831
  8.257   3.8934
  8.244   3.8316
  8.231   3.7492
  8.218   3.7904
  8.205   3.8213
  8.192   3.7904
  8.179   3.6977
  8.166   3.6874
  8.153   3.6256
  8.140   3.5947
  8.128   3.5020
  8.115   3.4402
  8.102   3.3887
  8.090   3.3166
  8.077   3.2136
  8.064   3.1312
  8.052   3.1518
  8.039   3.2136
  8.027   3.2033
  8.015   3.2548
  8.002   3.3578
  7.990   3.4093
  7.978   3.3990
  7.965   3.4093
  7.953   3.4299
  7.941   3.4196
  7.929   3.4711
  7.917   3.5535
  7.905   3.5844
  7.893   3.6256
  7.881   3.6359
  7.869   3.6153
  7.857   3.5844
  7.845   3.5638
  7.833   3.5123
  7.821   3.5329
  7.809   3.4917
  7.798   3.5020
  7.786   3.5123
  7.774   3.4917
  7.763   3.4711
  7.751   3.4814
  7.739   3.4711
  7.728   3.4711
  7.716   3.4093
  7.705   3.3578
  7.694   3.3166
  7.682   3.2960
  7.671   3.2445
  7.659   3.2857
  7.648   3.2857
  7.637   3.2136
  7.626   3.1724
  7.614   3.1724
  7.603   3.1003
  7.592   3.1312
  7.581   3.1415
  7.570   3.1930
  7.559   3.1827
  7.548   3.2136
  7.537   3.1827
  7.526   3.1415
  7.515   3.1312
  7.504   3.1518
  7.493   3.1003
  7.483   3.1003
  7.472   3.0797
  7.461   3.1106
  7.450   3.1106
  7.440   3.1518
  7.429   3.1621
  7.418   3.1724
  7.408   3.1106
  7.397   3.1003
  7.387   3.1312
  7.376   3.1724
  7.366   3.1621
  7.355   3.1003
  7.345   3.0385
  7.334   3.0900
  7.324   3.1415
  7.314   3.1312
  7.303   3.1312
  7.293   3.1209
  7.283   3.0694
  7.273   3.0591
  7.263   3.0488
  7.252   3.0797
  7.242   3.0797
  7.232   3.1312
  7.222   3.1106
  7.212   3.1106
  7.202   3.0179
  7.192   3.0179
  7.182   3.0591
  7.172   3.0797
  7.162   3.0591
  7.152   3.0488
  7.143   3.0694
  7.133   3.0694
  7.123   3.0797
  7.113   3.1003
  7.103   3.1003
  7.094   3.1209
  7.084   3.1209
  7.074   3.1003
  7.065   3.0488
  7.055   2.9870
  7.046   2.9767
  7.036   3.0900
  7.026   3.0076
  7.017   2.9149
  7.007   2.8531
  6.998   2.8119
  6.989   2.8016
  6.979   2.8325
  6.970   2.8016
  6.960   2.7810
  6.951   2.7810
  6.942   2.8222
  6.932   2.8119
  6.923   2.7913
  6.914   2.7398
  6.905   2.7295
  6.896   2.7295
  6.886   2.7501
  6.877   2.7089
  6.868   2.7192
  6.859   2.8531
  6.850   2.8840
  6.841   2.7810
  6.832   2.7501
  6.823   2.7398
  6.814   2.8016
  6.805   2.7810
  6.796   2.8325
  6.787   2.8428
  6.778   2.8428
  6.770   2.8325
  6.761   2.8634
  6.752   2.8119
  6.743   2.8016
  6.734   2.8943
  6.726   2.9355
  6.717   2.8840
  6.708   2.9046
  6.700   2.9046
  6.691   2.8531
  6.682   2.8840
  6.674   2.9870
  6.665   2.9458
  6.657   2.9458
  6.648   2.9561
  6.640   2.9355
  6.631   2.9458
  6.623   2.9767
  6.614   2.9355
  6.606   2.9767
  6.597   3.0488
  6.589   3.1415
  6.581   3.1312
  6.572   3.1003
  6.564   3.1312
  6.556   3.1621
  6.547   3.1621
  6.539   3.1312
  6.531   3.1106
  6.523   3.1106
  6.514   3.1518
  6.506   3.1930
  6.498   3.2033
  6.490   3.3063
  6.482   3.3372
  6.474   3.3784
  6.466   3.4402
  6.458   3.4711
  6.450   3.4608
  6.442   3.4917
  6.434   3.5226
  6.426   3.5432
  6.418   3.5741
  6.410   3.5535
  6.402   3.4814
  6.394   3.4402
  6.386   3.3784
  6.378   3.3784
  6.370   3.3887
  6.363   3.3784
  6.355   3.3269
  6.347   3.2960
  6.339   3.2754
  6.332   3.2136
  6.324   3.0900
  6.316   3.0385
  6.308   3.0488
  6.301   3.0385
  6.293   2.9767
  6.286   2.9355
  6.278   2.8943
  6.270   2.8840
  6.263   2.8119
  6.255   2.8222
  6.248   2.8119
  6.240   2.8016
  6.233   2.7604
  6.225   2.7295
  6.218   2.7192
  6.210   2.6471
  6.203   2.5956
  6.195   2.5956
  6.188   2.5338
  6.181   2.5338
  6.173   2.5338
  6.166   2.5132
  6.159   2.5132
  6.151   2.4514
  6.144   2.3896
  6.137   2.4102
  6.130   2.4514
  6.122   2.4926
  6.115   2.4411
  6.108   2.4205
  6.101   2.4823
  6.094   2.5029
  6.086   2.4514
  6.079   2.4617
  6.072   2.4926
  6.065   2.5029
  6.058   2.4926
  6.051   2.5647
  6.044   2.6471
  6.037   2.6162
  6.030   2.6162
  6.023   2.6986
  6.016   2.7192
  6.009   2.7604
  6.002   2.7707
  5.995   2.8016
  5.988   2.8428
  5.981   2.8737
  5.974   2.8840
  5.967   2.9767
  5.960   3.0797
  5.954   3.1518
  5.947   3.1312
  5.940   3.1930
  5.933   3.2754
  5.926   3.3269
  5.920   3.3784
  5.913   3.4299
  5.906   3.4299
  5.899   3.4196
  5.893   3.4814
  5.886   3.5329
  5.879   3.5638
  5.873   3.6256
  5.866   3.6565
  5.859   3.6771
  5.853   3.6771
  5.846   3.6977
  5.840   3.6668
  5.833   3.6874
  5.827   3.6977
  5.820   3.6977
  5.813   3.6977
  5.807   3.6874
  5.800   3.6565
  5.794   3.6977
  5.788   3.7080
  5.781   3.6462
  5.775   3.5844
  5.768   3.6359
  5.762   3.6874
  5.755   3.6565
  5.749   3.6153
  5.743   3.5844
  5.736   3.5432
  5.730   3.5947
  5.724   3.6256
  5.717   3.6256
  5.711   3.6359
  5.705   3.6153
  5.698   3.6050
  5.692   3.6050
  5.686   3.5741
  5.680   3.5741
  5.674   3.5741
  5.667   3.6050
  5.661   3.6050
  5.655   3.5947
  5.649   3.6256
  5.643   3.6359
  5.637   3.5638
  5.630   3.5741
  5.624   3.6153
  5.618   3.6668
  5.612   3.6874
  5.606   3.6668
  5.600   3.6359
  5.594   3.6462
  5.588   3.6771
  5.582   3.6771
  5.576   3.6256
  5.570   3.6256
  5.564   3.6874
  5.558   3.7389
  5.552   3.7698
  5.546   3.8213
  5.540   3.8213
  5.534   3.9140
  5.528   3.9861
  5.523   3.9964
  5.517   4.0685
  5.511   4.1406
  5.505   4.1612
  5.499   4.2127
  5.493   4.2436
  5.487   4.2436
  5.482   4.2539
  5.476   4.3466
  5.470   4.3569
  5.464   4.3775
  5.459   4.4702
  5.453   4.5011
  5.447   4.4599
  5.441   4.4908
  5.436   4.5011
  5.430   4.5011
  5.424   4.5320
  5.419   4.5423
  5.413   4.5217
  5.407   4.5011
  5.402   4.4393
  5.396   4.3981
  5.390   4.3054
  5.385   4.2333
  5.379   4.2333
  5.374   4.1715
  5.368   4.0273
  5.363   3.9552
  5.357   3.8625
  5.352   3.8007
  5.346   3.7389
  5.341   3.7389
  5.335   3.7595
  5.330   3.8007
  5.324   3.7595
  5.319   3.7389
  5.313   3.7904
  5.308   3.8110
  5.302   3.8316
  5.297   3.9243
  5.291   3.9758
  5.286   4.0273
  5.281   4.1200
  5.275   4.2333
  5.270   4.3363
  5.265   4.3878
  5.259   4.4599
  5.254   4.6041
  5.249   4.7483
  5.243   4.8925
  5.238   5.0470
  5.233   5.2221
  5.227   5.3354
  5.222   5.5002
  5.217   5.6753
  5.212   5.8607
  5.206   5.9946
  5.201   6.1079
  5.196   6.2109
  5.191   6.3036
  5.186   6.4169
  5.180   6.5405
  5.175   6.6229
  5.170   6.6847
  5.165   6.7568
  5.160   6.8804
  5.155   6.9731
  5.150   6.9937
  5.145   7.0349
  5.139   7.0967
  5.134   7.1173
  5.129   7.1379
  5.124   7.1791
  5.119   7.1997
  5.114   7.1791
  5.109   7.1997
  5.104   7.2409
  5.099   7.2512
  5.094   7.2512
  5.089   7.2306
  5.084   7.2100
  5.079   7.1997
  5.074   7.1585
  5.069   7.1173
  5.064   7.0452
  5.059   6.9731
  5.054   6.9525
  5.049   6.9628
  5.044   6.9525
  5.040   6.9010
  5.035   6.9113
  5.030   6.9422
  5.025   6.9422
  5.020   6.9422
  5.015   6.9834
  5.010   7.0246
  5.005   7.0040
  5.001   7.0555
  4.996   7.0864
  4.991   7.0864
  4.986   7.1379
  4.981   7.1379
  4.977   7.1070
  4.972   7.1688
  4.967   7.2306
  4.962   7.2924
  4.958   7.3439
  4.953   7.3851
  4.948   7.4675
  4.943   7.5808
  4.939   7.7559
  4.934   7.9516
  4.929   8.1061
  4.925   8.3018
  4.920   8.5593
  4.915   8.7962
  4.911   9.0022
  4.906   9.2391
  4.901   9.4554
  4.897   9.6305
  4.892   9.8571
  4.888  10.0837
  4.883  10.2794
  4.878  10.4545
  4.874  10.6605
  4.869  10.8459
  4.865  11.0107
  4.860  11.1034
  4.856  11.2064
  4.851  11.3712
  4.846  11.4433
  4.842  11.5360
  4.837  11.6699
  4.833  11.8141
  4.828  11.9480
  4.824  11.9789
  4.819  11.9789
  4.815  12.1025
  4.810  12.2570
  4.806  12.3600
  4.802  12.4733
  4.797  12.5248
  4.793  12.5660
  4.788  12.5969
  4.784  12.6381
  4.779  12.6896
  4.775  12.7514
  4.771  12.8132
  4.766  12.8647
  4.762  12.8750
  4.758  12.9059
  4.753  12.9265
  4.749  12.9265
  4.744  12.9883
  4.740  13.0089
  4.736  13.0501
  4.731  13.0810
  4.727  13.0810
  4.723  13.1222
  4.719  13.1840
  4.714  13.2252
  4.710  13.2149
  4.706  13.2252
  4.701  13.2561
  4.697  13.3694
  4.693  13.4209
  4.689  13.3797
  4.684  13.3900
  4.680  13.4518
  4.676  13.4312
  4.672  13.4209
  4.668  13.4312
  4.663  13.4209
  4.659  13.4415
  4.655  13.4930
  4.651  13.5754
  4.647  13.5342
  4.643  13.4724
  4.638  13.5445
  4.634  13.6372
  4.630  13.7196
  4.626  13.7814
  4.622  13.8844
  4.618  13.9771
  4.614  14.0183
  4.610  14.1419
  4.605  14.2346
  4.601  14.2140
  4.597  14.3067
  4.593  14.4715
  4.589  14.5436
  4.585  14.6260
  4.581  14.6981
  4.577  14.7290
  4.573  14.7393
  4.569  14.7908
  4.565  14.8732
  4.561  14.9762
  4.557  15.1101
  4.553  15.1410
  4.549  15.2131
  4.545  15.3058
  4.541  15.3470
  4.537  15.3985
  4.533  15.4603
  4.529  15.5118
  4.525  15.5427
  4.521  15.6354
  4.517  15.7384
  4.513  15.7590
  4.509  15.8105
  4.505  15.9444
  4.502  16.0165
  4.498  16.0680
  4.494  16.0989
  4.490  16.1092
  4.486  16.1607
  4.482  16.2019
  4.478  16.2843
  4.474  16.3667
  4.470  16.3667
  4.467  16.3461
  4.463  16.4697
  4.459  16.5315
  4.455  16.5315
  4.451  16.5006
  4.447  16.5006
  4.444  16.5006
  4.440  16.5212
  4.436  16.5727
  4.432  16.5624
  4.428  16.5212
  4.425  16.5212
  4.421  16.5727
  4.417  16.6345
  4.413  16.6654
  4.410  16.6551
  4.406  16.6963
  4.402  16.6963
  4.398  16.7066
  4.395  16.8302
  4.391  16.9229
  4.387  16.9847
  4.384  17.0465
  4.380  17.1495
  4.376  17.3040
  4.372  17.3864
  4.369  17.4276
  4.365  17.4894
  4.361  17.5718
  4.358  17.7778
  4.354  17.9735
  4.350  18.0662
  4.347  18.0765
  4.343  18.1383
  4.340  18.2619
  4.336  18.3752
  4.332  18.4782
  4.329  18.6121
  4.325  18.6533
  4.321  18.6945
  4.318  18.7872
  4.314  18.9417
  4.311  19.0962
  4.307  19.1683
  4.304  19.2198
  4.300  19.3228
  4.296  19.4361
  4.293  19.5906
  4.289  19.6730
  4.286  19.6627
  4.282  19.7039
  4.279  19.8069
  4.275  19.9305
  4.272  20.0026
  4.268  19.9511
  4.265  19.9820
  4.261  20.0541
  4.258  20.0747
  4.254  20.0747
  4.251  20.1365
  4.247  20.2189
  4.244  20.2807
  4.240  20.3631
  4.237  20.4352
  4.233  20.5279
  4.230  20.5897
  4.226  20.5176
  4.223  20.5176
  4.219  20.4352
  4.216  20.4661
  4.213  20.5382
  4.209  20.5176
  4.206  20.4455
  4.202  20.4146
  4.199  20.4043
  4.196  20.4352
  4.192  20.4558
  4.189  20.5073
  4.185  20.5176
  4.182  20.5588
  4.179  20.5794
  4.175  20.5588
  4.172  20.6309
  4.169  20.6927
  4.165  20.6515
  4.162  20.6721
  4.159  20.6515
  4.155  20.6103
  4.152  20.7030
  4.149  20.8163
  4.145  20.7442
  4.142  20.7442
  4.139  20.8266
  4.135  20.8575
  4.132  20.8472
  4.129  20.8678
  4.126  20.8678
  4.122  20.8987
  4.119  20.9605
  4.116  21.0017
  4.112  21.0326
  4.109  20.9708
  4.106  20.9502
  4.103  20.9708
  4.099  20.9811
  4.096  20.9708
  4.093  20.9811
  4.090  21.0326
  4.086  20.9605
  4.083  20.9708
  4.080  21.0326
  4.077  21.0532
  4.074  21.0120
  4.070  21.0429
  4.067  21.0429
  4.064  21.0429
  4.061  20.9605
  4.058  20.8884
  4.055  20.8987
  4.051  20.8884
  4.048  20.7957
  4.045  20.7854
  4.042  20.7854
  4.039  20.7545
  4.036  20.6824
  4.032  20.6206
  4.029  20.5588
  4.026  20.4146
  4.023  20.2910
  4.020  20.1777
  4.017  20.0850
  4.014  19.9511
  4.011  19.7451
  4.008  19.5906
  4.004  19.4258
  4.001  19.2919
  3.998  19.2198
  3.995  18.9726
  3.992  18.7151
  3.989  18.6533
  3.986  18.5915
  3.983  18.4679
  3.980  18.3855
  3.977  18.4267
  3.974  18.4988
  3.971  18.4988
  3.968  18.4782
  3.965  18.5709
  3.962  18.6430
  3.959  18.6327
  3.956  18.6430
  3.953  18.8078
  3.950  19.0550
  3.947  19.2301
  3.944  19.3846
  3.941  19.5700
  3.938  19.6524
  3.935  19.6833
  3.932  19.7348
  3.929  19.8275
  3.926  19.9511
  3.923  20.0026
  3.920  19.9923
  3.917  19.9614
  3.914  19.9614
  3.911  19.9820
  3.908  19.9408
  3.905  19.9202
  3.902  19.9717
  3.899  19.9923
  3.896  20.0335
  3.893  20.1674
  3.890  20.1571
  3.887  20.1056
  3.884  20.0129
  3.882  20.0026
  3.879  20.0026
  3.876  19.9717
  3.873  20.0541
  3.870  20.1262
  3.867  20.0953
  3.864  20.0953
  3.861  20.0541
  3.858  20.0232
  3.856  20.0026
  3.853  19.9923
  3.850  20.0026
  3.847  20.0232
  3.844  20.0129
  3.841  20.0335
  3.838  20.0438
  3.836  20.1056
  3.833  20.1365
  3.830  20.0850
  3.827  20.0850
  3.824  20.1571
  3.822  20.1262
  3.819  20.2189
  3.816  20.2910
  3.813  20.3631
  3.810  20.3940
  3.807  20.3322
  3.805  20.2704
  3.802  20.2601
  3.799  20.2189
  3.796  20.3219
  3.794  20.4558
  3.791  20.4352
  3.788  20.3631
  3.785  20.3631
  3.782  20.3322
  3.780  20.3219
  3.777  20.3837
  3.774  20.4249
  3.771  20.3631
  3.769  20.3219
  3.766  20.2910
  3.763  20.2292
  3.761  20.1571
  3.758  20.1880
  3.755  20.1365
  3.752  20.1365
  3.750  20.0850
  3.747  19.9717
  3.744  19.9820
  3.742  20.0129
  3.739  19.9511
  3.736  19.8996
  3.733  19.9820
  3.731  20.0438
  3.728  19.9820
  3.725  19.9202
  3.723  19.8172
  3.720  19.6730
  3.717  19.6936
  3.715  19.7760
  3.712  19.7554
  3.709  19.7142
  3.707  19.6833
  3.704  19.6524
  3.702  19.6112
  3.699  19.5700
  3.696  19.4773
  3.694  19.4567
  3.691  19.5185
  3.688  19.4464
  3.686  19.3125
  3.683  19.3846
  3.680  19.4567
  3.678  19.4361
  3.675  19.3022
  3.673  19.2713
  3.670  19.3125
  3.667  19.2919
  3.665  19.2301
  3.662  19.2198
  3.660  19.1992
  3.657  19.1786
  3.655  19.1065
  3.652  19.1374
  3.649  19.0653
  3.647  19.0138
  3.644  18.9623
  3.642  18.9314
  3.639  18.9417
  3.637  18.8593
  3.634  18.7460
  3.632  18.7254
  3.629  18.7357
  3.626  18.7563
  3.624  18.6636
  3.621  18.5812
  3.619  18.5503
  3.616  18.5400
  3.614  18.4988
  3.611  18.3340
  3.609  18.2722
  3.606  18.3958
  3.604  18.4267
  3.601  18.3443
  3.599  18.2413
  3.596  18.1795
  3.594  18.1589
  3.591  18.2104
  3.589  18.1177
  3.586  18.0456
  3.584  17.9838
  3.581  17.8808
  3.579  17.7778
  3.576  17.7984
  3.574  17.7984
  3.571  17.7675
  3.569  17.6748
  3.567  17.6130
  3.564  17.5409
  3.562  17.5203
  3.559  17.4585
  3.557  17.4276
  3.554  17.3349
  3.552  17.2937
  3.549  17.2113
  3.547  17.1907
  3.545  17.1907
  3.542  17.0568
  3.540  16.9229
  3.537  16.9538
  3.535  16.8611
  3.533  16.7066
  3.530  16.7066
  3.528  16.7890
  3.525  16.6551
  3.523  16.5006
  3.521  16.3152
  3.518  16.1607
  3.516  16.0062
  3.513  15.9032
  3.511  15.9032
  3.509  15.8414
  3.506  15.7487
  3.504  15.7281
  3.502  15.6663
  3.499  15.5736
  3.497  15.4706
  3.494  15.4191
  3.492  15.4191
  3.490  15.3676
  3.487  15.2337
  3.485  15.1513
  3.483  15.0792
  3.480  15.0689
  3.478  15.0071
  3.476  15.0174
  3.473  14.9659
  3.471  14.9144
  3.469  14.9247
  3.466  14.8526
  3.464  14.8320
  3.462  14.8526
  3.460  14.7908
  3.457  14.7496
  3.455  14.7393
  3.453  14.6775
  3.450  14.6157
  3.448  14.6054
  3.446  14.5333
  3.443  14.5436
  3.441  14.4612
  3.439  14.4097
  3.437  14.4200
  3.434  14.3479
  3.432  14.2243
  3.430  14.1316
  3.428  14.0595
  3.425  14.1007
  3.423  14.0595
  3.421  14.0183
  3.418  13.8329
  3.416  13.7505
  3.414  13.7608
  3.412  13.7299
  3.409  13.6063
  3.407  13.5960
  3.405  13.5754
  3.403  13.4827
  3.401  13.4106
  3.398  13.4724
  3.396  13.4724
  3.394  13.3797
  3.392  13.2664
  3.389  13.2870
  3.387  13.2149
  3.385  13.1325
  3.383  13.1531
  3.381  13.1222
  3.378  13.0501
  3.376  13.0604
  3.374  12.9677
  3.372  12.8853
  3.370  12.7926
  3.367  12.7823
  3.365  12.7823
  3.363  12.7411
  3.361  12.7308
  3.359  12.6484
  3.357  12.5660
  3.354  12.5763
  3.352  12.5351
  3.350  12.4115
  3.348  12.3600
  3.346  12.4218
  3.344  12.4321
  3.341  12.4218
  3.339  12.3497
  3.337  12.3085
  3.335  12.3188
  3.333  12.3188
  3.331  12.3600
  3.329  12.3291
  3.326  12.1128
  3.324  12.0613
  3.322  12.1334
  3.320  12.1334
  3.318  12.0510
  3.316  11.9171
  3.314  11.8347
  3.312  11.8244
  3.309  11.7832
  3.307  11.7523
  3.305  11.7214
  3.303  11.6493
  3.301  11.5463
  3.299  11.5875
  3.297  11.5772
  3.295  11.5566
  3.293  11.4845
  3.291  11.4330
  3.288  11.2991
  3.286  11.1549
  3.284  11.0519
  3.282  11.1240
  3.280  11.1549
  3.278  11.1343
  3.276  11.0828
  3.274  10.9901
  3.272  10.8459
  3.270  10.8459
  3.268  10.8150
  3.266  10.6605
  3.264  10.5575
  3.262  10.6296
  3.259  10.5987
  3.257  10.4957
  3.255  10.3515
  3.253  10.3000
  3.251  10.2382
  3.249  10.3000
  3.247  10.2794
  3.245  10.1558
  3.243  10.0837
  3.241  10.0116
  3.239   9.9395
  3.237   9.9395
  3.235   9.9910
  3.233   9.9086
  3.231   9.7953
  3.229   9.7438
  3.227   9.6923
  3.225   9.6717
  3.223   9.6717
  3.221   9.6305
  3.219   9.5996
  3.217   9.4245
  3.215   9.2185
  3.213   9.3421
  3.211   9.3833
  3.209   9.3524
  3.207   9.1773
  3.205   9.0537
  3.203   9.0125
  3.201   9.0125
  3.199   8.9610
  3.197   8.8992
  3.195   8.8065
  3.193   8.8374
  3.191   8.8168
  3.189   8.6932
  3.187   8.6520
  3.185   8.6932
  3.183   8.6005
  3.182   8.4666
  3.180   8.4048
  3.178   8.4872
  3.176   8.5181
  3.174   8.4357
  3.172   8.2091
  3.170   8.0340
  3.168   8.0340
  3.166   8.0649
  3.164   8.1370
  3.162   8.1782
  3.160   8.1473
  3.158   8.0134
  3.156   7.8486
  3.154   7.8383
  3.152   7.7147
  3.151   7.6323
  3.149   7.6735
  3.147   7.6426
  3.145   7.7044
  3.143   7.7765
  3.141   7.7353
  3.139   7.6323
  3.137   7.4572
  3.135   7.4057
  3.133   7.3336
  3.132   7.3645
  3.130   7.3542
  3.128   7.3748
  3.126   7.3233
  3.124   7.1894
  3.122   7.1482
  3.120   7.0761
  3.118   7.0349
  3.117   7.1276
  3.115   7.0555
  3.113   7.0452
  3.111   6.9937
  3.109   6.8804
  3.107   6.8701
  3.105   6.9113
  3.103   6.8598
  3.102   6.7980
  3.100   6.7465
  3.098   6.7156
  3.096   6.6744
  3.094   6.8083
  3.092   6.8804
  3.091   6.7774
  3.089   6.7362
  3.087   6.6950
  3.085   6.4787
  3.083   6.4169
  3.081   6.4993
  3.079   6.4684
  3.078   6.3757
  3.076   6.3551
  3.074   6.4478
  3.072   6.4787
  3.070   6.4066
  3.069   6.2418
  3.067   6.1697
  3.065   6.2418
  3.063   6.3448
  3.061   6.3345
  3.060   6.2830
  3.058   6.2624
  3.056   6.0976
  3.054   6.0770
  3.052   6.1903
  3.051   6.3036
  3.049   6.2624
  3.047   6.1697
  3.045   6.0770
  3.043   6.1182
  3.042   6.1594
  3.040   6.1903
  3.038   6.1491
  3.036   6.1388
  3.034   6.1182
  3.033   6.0667
  3.031   6.0049
  3.029   6.0461
  3.027   6.0873
  3.026   6.1182
  3.024   6.0049
  3.022   5.8092
  3.020   5.8607
  3.019   5.9534
  3.017   5.8195
  3.015   5.7989
  3.013   5.8710
  3.012   5.8710
  3.010   5.8195
  3.008   5.8813
  3.006   5.7989
  3.005   5.7371
  3.003   5.7783
  3.001   5.9019
  2.999   5.8298
  2.998   5.7577
  2.996   5.7474
  2.994   5.7371
  2.992   5.6032
  2.991   5.6547
  2.989   5.7371
  2.987   5.7268
  2.986   5.5620
  2.984   5.4075
  2.982   5.3560
  2.980   5.5414
  2.979   5.6238
  2.977   5.5311
  2.975   5.4384
  2.974   5.3354
  2.972   5.4281
  2.970   5.6135
  2.968   5.5620
  2.967   5.4590
  2.965   5.3972
  2.963   5.4075
  2.962   5.4075
  2.960   5.3766
  2.958   5.2015
  2.957   5.2324
  2.955   5.3663
  2.953   5.1809
  2.952   5.0573
  2.950   5.2015
  2.948   5.2015
  2.947   5.1706
  2.945   5.1809
  2.943   5.3148
  2.942   5.3972
  2.940   5.4487
  2.938   5.5105
  2.937   5.3869
  2.935   5.0573
  2.933   5.0470
  2.932   5.1088
  2.930   5.3354
  2.928   5.4487
  2.927   5.4281
  2.925   5.3560
  2.923   5.1809
  2.922   5.0779
  2.920   5.2221
  2.918   5.3354
  2.917   5.4075
  2.915   5.3766
  2.913   5.2839
  2.912   5.3560
  2.910   5.4590
  2.909   5.3972
  2.907   5.4487
  2.905   5.4178
  2.904   5.3251
  2.902   5.2942
  2.900   5.3045
  2.899   5.3869
  2.897   5.5929
  2.896   5.4487
  2.894   5.3560
  2.892   5.4281
  2.891   5.5414
  2.889   5.5517
  2.887   5.5311
  2.886   5.5208
  2.884   5.4796
  2.883   5.4075
  2.881   5.3045
  2.879   5.3354
  2.878   5.6238
  2.876   5.8298
  2.875   5.9019
  2.873   5.7886
  2.871   5.9431
  2.870   5.8710
  2.868   5.6650
  2.867   5.5517
  2.865   5.4590
  2.864   5.4487
  2.862   5.8813
  2.860   5.9843
  2.859   5.8195
  2.857   5.7474
  2.856   5.8401
  2.854   5.9019
  2.853   5.7886
  2.851   5.8607
  2.849   6.1182
  2.848   6.1079
  2.846   6.0255
  2.845   5.9431
  2.843   6.0564
  2.842   5.9946
  2.840   6.0358
  2.838   5.9122
  2.837   5.8298
  2.835   5.8092
  2.834   5.9225
  2.832   6.1388
  2.831   6.2315
  2.829   6.0049
  2.828   5.9843
  2.826   6.1491
  2.825   6.3551
  2.823   6.1903
  2.821   5.9946
  2.820   5.8298
  2.818   5.9534
  2.817   5.9843
  2.815   5.9122
  2.814   5.8813
  2.812   5.9122
  2.811   6.0255
  2.809   5.9637
  2.808   5.8195
  2.806   5.9019
  2.805   5.7474
  2.803   5.8195
  2.802   5.9225
  2.800   6.0873
  2.799   5.9534
  2.797   5.8813
  2.796   5.9843
  2.794   6.1903
  2.793   6.0976
  2.791   5.8298
  2.790   5.7577
  2.788   5.7783
  2.787   5.7268
  2.785   5.6032
  2.784   5.5929
  2.782   5.6238
  2.781   5.5105
  2.779   5.6959
  2.778   5.7886
  2.776   5.6650
  2.775   5.4899
  2.773   5.5002
  2.772   5.6238
  2.770   5.6444
  2.769   5.6856
  2.767   5.8195
  2.766   5.5723
  2.764   5.4178
  2.763   5.3457
  2.761   5.3148
  2.760   5.4075
  2.758   5.4899
  2.757   5.5517
  2.756   5.7268
  2.754   5.7268
  2.753   5.7062
  2.751   5.7165
  2.750   5.8813
  2.748   6.2315
  2.747   6.4375
  2.745   6.3551
  2.744   6.4787
  2.742   6.6332
  2.741   6.7877
  2.740   6.6950
  2.738   6.8907
  2.737   7.1894
  2.735   7.4057
  2.734   7.6838
  2.732   7.9001
  2.731   8.0958
  2.729   8.5181
  2.728   8.8580
  2.727   9.1567
  2.725   9.3421
  2.724   9.4966
  2.722   9.6305
  2.721   9.8777
  2.719  10.2588
  2.718  10.5781
  2.717  10.9386
  2.715  11.2579
  2.714  11.4433
  2.712  11.5978
  2.711  11.5772
  2.709  11.5669
  2.708  11.6905
  2.707  11.8759
  2.705  11.9377
  2.704  12.1025
  2.702  12.5042
  2.701  13.0604
  2.700  13.6784
  2.698  14.4406
  2.697  15.0895
  2.695  15.6663
  2.694  16.2740
  2.693  16.9023
  2.691  17.4997
  2.690  17.9941
  2.688  18.5400
  2.687  19.0962
  2.686  19.0962
  2.684  19.2507
  2.683  19.6524
  2.681  20.0953
  2.680  20.3631
  2.679  20.2498
  2.677  20.1365
  2.676  20.4352
  2.675  20.7236
  2.673  20.8060
  2.672  20.8575
  2.670  20.9502
  2.669  21.0738
  2.668  21.2077
  2.666  21.3107
  2.665  21.6609
  2.664  21.5785
  2.662  21.4343
  2.661  21.4240
  2.659  21.4446
  2.658  21.5785
  2.657  21.6403
  2.655  21.8566
  2.654  21.9184
  2.653  21.7639
  2.651  21.5270
  2.650  21.4446
  2.649  21.7536
  2.647  21.8978
  2.646  21.8978
  2.645  21.9390
  2.643  21.8257
  2.642  21.6712
  2.640  21.9493
  2.639  21.8875
  2.638  21.7639
  2.636  22.1553
  2.635  22.3304
  2.634  22.1656
  2.632  22.1141
  2.631  21.9493
  2.630  21.8051
  2.628  21.8772
  2.627  22.0111
  2.626  22.0935
  2.624  22.2068
  2.623  22.0935
  2.622  21.9081
  2.620  22.1965
  2.619  22.3304
  2.618  22.0008
  2.617  22.0523
  2.615  21.9802
  2.614  22.1347
  2.613  22.3201
  2.611  22.1965
  2.610  21.9184
  2.609  21.9081
  2.607  21.9802
  2.606  22.0832
  2.605  22.1759
  2.603  22.0111
  2.602  21.9390
  2.601  21.9699
  2.599  21.8154
  2.598  22.1244
  2.597  22.5158
  2.596  22.5570
  2.594  22.4025
  2.593  22.2892
  2.592  22.1038
  2.590  22.2583
  2.589  22.2686
  2.588  22.0935
  2.586  22.0420
  2.585  22.0523
  2.584  22.1553
  2.583  22.0729
  2.581  22.0111
  2.580  22.1038
  2.579  22.0317
  2.577  22.1244
  2.576  22.4025
  2.575  22.4952
  2.574  22.1553
  2.572  22.2068
  2.571  22.3201
  2.570  22.0008
  2.569  21.7639
  2.567  21.9699
  2.566  22.1038
  2.565  22.3407
  2.563  22.3819
  2.562  22.2274
  2.561  22.0111
  2.560  22.0008
  2.558  21.8463
  2.557  21.7330
  2.556  22.2068
  2.555  22.5982
  2.553  22.0832
  2.552  21.9802
  2.551  22.3304
  2.550  22.4231
  2.548  22.2171
  2.547  22.0214
  2.546  21.8669
  2.545  21.9493
  2.543  21.9802
  2.542  21.8154
  2.541  21.7948
  2.540  22.2274
  2.538  22.6188
  2.537  22.3613
  2.536  22.1656
  2.535  22.2892
  2.533  22.2171
  2.532  22.1965
  2.531  22.1553
  2.530  22.1347
  2.528  22.0935
  2.527  22.0008
  2.526  21.8154
  2.525  22.1759
  2.524  22.3922
  2.522  22.2995
  2.521  22.1965
  2.520  22.3098
  2.519  22.1450
  2.517  22.0729
  2.516  22.1244
  2.515  22.1553
  2.514  22.0729
  2.513  21.8154
  2.511  21.7948
  2.510  21.8875
  2.509  21.8463
  2.508  22.0111
  2.506  22.1553
  2.505  22.1038
  2.504  21.8978
  2.503  21.9699
  2.502  22.0214
  2.500  22.0523
  2.500  22.0523
  2.496  22.6351
  2.492  22.4878
  2.488  22.5081
  2.484  22.3628
  2.480  22.3702
  2.476  22.4418
  2.472  22.5061
  2.468  22.8189
  2.464  22.2228
  2.460  22.9251
  2.456  22.4820
  2.452  22.9415
  2.448  22.8727
  2.444  22.5107
  2.440  22.5696
  2.436  22.9403
  2.432  22.7445
  2.428  22.8254
  2.424  22.7526
  2.420  23.1310
  2.416  22.8173
  2.412  22.8770
  2.408  22.7823
  2.404  22.9815
  2.400  23.0386
  2.396  23.1389
  2.392  23.2407
  2.388  22.8019
  2.384  23.1058
  2.380  23.0315
  2.376  22.9706
  2.372  23.2198
  2.368  23.0403
  2.364  23.1084
  2.360  23.1917
  2.356  22.8871
  2.352  23.4407
  2.348  23.5405
  2.344  22.9127
  2.340  22.9027
  2.336  22.9738
  2.332  23.2965
  2.328  23.2500
  2.324  23.2930
  2.320  23.0141
  2.316  22.9625
  2.312  23.1293
  2.308  23.3360
  2.304  23.0253
  2.300  23.0400
  2.296  22.9673
  2.292  23.0976
  2.288  23.1427
  2.284  22.7606
  2.280  22.9156
  2.276  22.9750
  2.272  22.9704
  2.268  23.0107
  2.264  23.1009
  2.260  23.0308
  2.256  23.0764
  2.252  22.8863
  2.248  22.8178
  2.244  22.9229
  2.240  22.8507
  2.236  22.9366
  2.232  22.9076
  2.228  22.9175
  2.224  22.9089
  2.220  22.9238
  2.216  22.8793
  2.212  23.0612
  2.208  22.9072
  2.204  22.9404
  2.200  23.0556
  2.196  23.0705
  2.192  23.1666
  2.188  23.1421
  2.184  23.2111
  2.180  23.1140
  2.176  23.2819
  2.172  23.2690
  2.168  23.3920
  2.164  23.2620
  2.160  23.3058
  2.156  23.2476
  2.152  23.3721
  2.148  23.2452
  2.144  23.1968
  2.140  23.2086
  2.136  23.2215
  2.132  23.0805
  2.128  23.0753
  2.124  23.0313
  2.120  22.9217
  2.116  22.8134
  2.112  22.7746
  2.108  22.7773
  2.104  22.7312
  2.100  22.6227
  2.096  22.6231
  2.092  22.6412
  2.088  22.6483
  2.084  22.6806
  2.080  22.6582
  2.076  22.6362
  2.072  22.5934
  2.068  22.6623
  2.064  22.6045
  2.060  22.6208
  2.056  22.6323
  2.052  22.6692
  2.048  22.6538
  2.044  22.6274
  2.040  22.5997
  2.036  22.5605
  2.032  22.5865
  2.028  22.5853
  2.024  22.5815
  2.020  22.5551
  2.016  22.5097
  2.012  22.5198
  2.008  22.5475
  2.004  22.5116
  2.000  22.4903
  1.996  22.4399
  1.992  22.4113
  1.988  22.3650
  1.984  22.3834
  1.980  22.4106
  1.976  22.3540
  1.972  22.2498
  1.968  22.2455
  1.964  22.2992
  1.960  22.2910
  1.956  22.2754
  1.952  22.2556
  1.948  22.2055
  1.944  22.1528
  1.940  22.1032
  1.936  22.0569
  1.932  21.9768
  1.928  21.7998
  1.924  21.6480
  1.920  21.5839
  1.916  21.5638
  1.912  21.5146
  1.908  21.4697
  1.904  21.4950
  1.900  21.5958
  1.896  21.7561
  1.892  21.8646
  1.888  22.0067
  1.884  22.1625
  1.880  22.2527
  1.876  22.2929
  1.872  22.2906
  1.868  22.2409
  1.864  22.1762
  1.860  22.1700
  1.856  22.2257
  1.852  22.2934
  1.848  22.3141
  1.844  22.2630
  1.840  22.1959
  1.836  22.1277
  1.832  22.0640
  1.828  22.0728
  1.824  22.0903
  1.820  22.0969
  1.816  22.0949
  1.812  22.0717
  1.808  22.0559
  1.804  22.0780
  1.800  22.1120
  1.796  22.1490
  1.792  22.1772
  1.788  22.1665
  1.784  22.2006
  1.780  22.2608
  1.776  22.2523
  1.772  22.1914
  1.768  22.1314
  1.764  22.0730
  1.760  22.0761
  1.756  22.0637
  1.752  22.0866
  1.748  22.1003
  1.744  22.1081
  1.740  22.0859
  1.736  22.1097
  1.732  22.0925
  1.728  22.0722
  1.724  22.0632
  1.720  22.0739
  1.716  22.0676
  1.712  22.0631
  1.708  22.0476
  1.704  22.0204
  1.700  22.0204
  1.696  22.0402
  1.692  22.0155
  1.688  21.9862
  1.684  21.9552
  1.680  21.9766
  1.676  21.9776
  1.672  21.9639
  1.668  21.9445
  1.664  21.9411
  1.660  21.9108
  1.656  21.8559
  1.652  21.8501
  1.648  21.8674
  1.644  21.9246
  1.640  21.8962
  1.636  21.8351
  1.632  21.7978
  1.628  21.8340
  1.624  21.8381
  1.620  21.7962
  1.616  21.8092
  1.612  21.8412
  1.608  21.7891
  1.604  21.7768
  1.600  21.7985
  1.596  21.7489
  1.592  21.7368
  1.588  21.7681
  1.584  21.7636
  1.580  21.7057
  1.576  21.6953
  1.572  21.7311
  1.568  21.7870
  1.564  21.7099
  1.560  21.6504
  1.556  21.7151
  1.552  21.7398
  1.548  21.6524
  1.544  21.6250
  1.540  21.6497
  1.536  21.6335
  1.532  21.6225
  1.528  21.6006
  1.524  21.6536
  1.520  21.5826
  1.516  21.5850
  1.512  21.5919
  1.508  21.5880
  1.504  21.5665
  1.500  21.5789
  1.496  21.5616
  1.492  21.5435
  1.488  21.5296
  1.484  21.4974
  1.480  21.5626
  1.476  21.5326
  1.472  21.5277
  1.468  21.4627
  1.464  21.4754
  1.460  21.4761
  1.456  21.4975
  1.452  21.5206
  1.448  21.4948
  1.444  21.4411
  1.440  21.3865
  1.436  21.4175
  1.432  21.4134
  1.428  21.3760
  1.424  21.4010
  1.420  21.3603
  1.416  21.3117
  1.412  21.3436
  1.408  21.4011
  1.404  21.4079
  1.400  21.3665
  1.396  21.4053
  1.392  21.4400
  1.388  21.5990
  1.384  21.5789
  1.380  21.4934
  1.376  21.4764
  1.372  21.5728
  1.368  21.6538
  1.364  21.6181
  1.360  21.4516
  1.356  21.3870
  1.352  21.3640
  1.348  21.4692
  1.344  21.5864
  1.340  21.7000
  1.336  21.7476
  1.332  21.5279
  1.328  21.5389
  1.324  21.5287
  1.320  21.5291
  1.316  21.5264
  1.312  21.5271
  1.308  21.5927
  1.304  21.5987
  1.300  21.5731
  1.296  21.5287
  1.292  21.5343
  1.288  21.5424
  1.284  21.6061
  1.280  21.5607
  1.276  21.5275
  1.272  21.5847
  1.268  21.5667
  1.264  21.4910
  1.260  21.6173
  1.256  21.5924
  1.252  21.5368
  1.248  21.5851
  1.244  21.6125
  1.240  21.5248
  1.236  21.5300
  1.232  21.5436
  1.228  21.5741
  1.224  21.5188
  1.220  21.6054
  1.216  21.5781
  1.212  21.5622
  1.208  21.5295
  1.204  21.5333
  1.200  21.5355
  1.196  21.5152
  1.192  21.5029
  1.188  21.5481
  1.184  21.4712
  1.180  21.5220
  1.176  21.5428
  1.172  21.5379
  1.168  21.5191
  1.164  21.5327
  1.160  21.4843
  1.156  21.4811
  1.152  21.5285
  1.148  21.4912
  1.144  21.4850
  1.140  21.5132
  1.136  21.4765
  1.132  21.4457
  1.128  21.4876
  1.124  21.4783
  1.120  21.3793
  1.116  21.3805
  1.112  21.4018
  1.108  21.4453
  1.104  21.4175
  1.100  21.4194
  1.096  21.4102
  1.092  21.3476
  1.088  21.3345
  1.084  21.3385
  1.080  21.2621
  1.076  21.3485
  1.072  21.3136
  1.068  21.2370
  1.064  21.1960
  1.060  21.2585
  1.056  21.2455
  1.052  21.2042
  1.048  21.1711
  1.044  21.1244
  1.040  21.1191
  1.036  21.3241
  1.032  22.0317
  1.028  21.0779
  1.024  21.0079
  1.020  20.9367
  1.016  20.9234
  1.012  20.9363
  1.008  20.9150
  1.004  20.8383
  1.000  20.8122
  0.996  20.7744
  0.992  20.7115
  0.988  20.6681
  0.984  20.6391
  0.980  20.5854
  0.976  20.5895
  0.972  20.5564
  0.968  20.4650
  0.964  20.4092
  0.960  20.4284
  0.956  20.4147
  0.952  20.3616
  0.948  20.3340
  0.944  20.3291
  0.940  20.2666
  0.936  20.2177
  0.932  20.1941
  0.928  20.1220
  0.924  20.0729
  0.920  20.1743
  0.916  20.3245
  0.912  20.3465
  0.908  20.3133
  0.904  20.3104
  0.900  20.3258
  0.896  20.3144
  0.892  20.2990
  0.888  20.2000
  0.884  20.2406
  0.880  20.2912
  0.876  20.3874
  0.872  20.2957
  0.868  20.3829
  0.864  20.2619
  0.860  20.0669
  0.856  19.9203
  0.852  20.0233
  0.848  20.0022
  0.844  20.0304
  0.840  19.9930
  0.836  20.0051
  0.832  19.9958
  0.828  19.9829
  0.824  19.9653
  0.820  19.9208
  0.816  19.9307
  0.812  19.8722
  0.808  19.9006
  0.804  19.8973
  0.800  19.8718
  0.796  19.7867
  0.792  19.7347
  0.788  19.7431
  0.784  19.6838
  0.780  19.6553
  0.776  19.6716
  0.772  19.6191
  0.768  19.5792
  0.764  19.5124
  0.760  19.4885
  0.756  19.4644
  0.752  19.3641
  0.748  19.2921
  0.744  19.2338
  0.740  19.1977
  0.736  19.1410
  0.732  19.0782
  0.728  18.9793
  0.724  18.9140
  0.720  18.8441
  0.716  18.7785
  0.712  18.6885
  0.708  18.6023
  0.704  18.5195
  0.700  18.4368
  0.696  18.3510
  0.692  18.2689
  0.688  18.1681
  0.684  18.0719
  0.680  17.9741
  0.676  17.8468
  0.672  17.7492
  0.668  17.6303
  0.664  17.4938
  0.660  17.3864
  0.656  17.2938
  0.652  17.1717
  0.648  17.0663
  0.644  16.9566
  0.640  16.8559
  0.636  16.7354
  0.632  16.6373
  0.628  16.5199
  0.624  16.4135
  0.620  16.3037
  0.616  16.1796
  0.612  16.0304
  0.608  15.8681
  0.604  15.7079
  0.600  15.5268
  0.596  15.3317
  0.592  15.1277
  0.588  14.8932
  0.584  14.6535
  0.580  14.4171
  0.576  14.1403
  0.572  13.8620
  0.568  13.6076
  0.564  13.3440
  0.560  13.0857
  0.556  12.8584
  0.552  12.6254
  0.548  12.4155
  0.544  12.2388
  0.540  12.0615
  0.536  11.8981
  0.532  11.7429
  0.528  11.6042
  0.524  11.4879
  0.520  11.3814
  0.516  11.2726
  0.512  11.1777
  0.508  11.0801
  0.504  10.9839
  0.500  10.8819
  0.496  10.7686
  0.492  10.6473
  0.488  10.5319
  0.484  10.4355
  0.480  10.3698
  0.476  10.3335
  0.472  10.2967
  0.468  10.2369
  0.464  10.1846
  0.460  10.1275
  0.456  10.0592
  0.452   9.9615
  0.448   9.8476
  0.444   9.7232
  0.440   9.6089
  0.436   9.4860
  0.432   9.3723
  0.428   9.2645
  0.424   9.1599
  0.420   9.0720
  0.416   8.9868
  0.412   8.8922
  0.408   8.8079
  0.404   8.7365
  0.400   8.6814
  0.000   0.0000
  0.000   0.0000
  0.000   0.0000
  0.000   0.0000
  0.000   0.0000
  0.000   0.0000
  0.000   0.0000
  0.000   0.0000
  0.000   0.0000
  0.000   0.0000
  0.000   0.0000
  0.000   0.0000
  0.000   0.0000
  0.000   0.0000
  0.000   0.0000
  0.000   0.0000
  0.000   0.0000
  0.000   0.0000
  0.000   0.0000
  0.000   0.0000
  0.000   0.0000
  0.000   0.0000
  0.000   0.0000
  0.000   0.0000
  0.000   0.0000
  0.000   0.0000
  0.000   0.0000
  0.000   0.0000
  0.000   0.0000
  0.000   0.0000
  0.000   0.0000
  0.000   0.0000
  0.000   0.0000
  0.000   0.0000
  0.000   0.0000
  0.000   0.0000
  0.000   0.0000
  0.000   0.0000
  0.000   0.0000
  0.000   0.0000
  0.000   0.0000
  0.000   0.0000
  0.000   0.0000
  0.000   0.0000
  0.000   0.0000
  0.000   0.0000
  0.000   0.0000
  0.000   0.0000
  0.000   0.0000
  0.000   0.0000
  0.000   0.0000
  0.000   0.0000
  0.000   0.0000
  0.000   0.0000
  0.000   0.0000
  0.000   0.0000
  0.000   0.0000
  0.000   0.0000
  0.000   0.0000
  0.000   0.0000
  0.000   0.0000
  0.000   0.0000
  0.000   0.0000
  0.000   0.0000
  0.000   0.0000
  0.000   0.0000
  0.000   0.0000
  0.000   0.0000
  0.000   0.0000
  0.000   0.0000
  0.000   0.0000
  0.000   0.0000
  0.000   0.0000
  0.000   0.0000
  0.000   0.0000
  0.000   0.0000
  0.000   0.0000
  0.000   0.0000
  0.000   0.0000
  0.000   0.0000
  0.000   0.0000
  0.000   0.0000
  0.000   0.0000
  0.000   0.0000
  0.000   0.0000
  0.000   0.0000
  0.000   0.0000
  0.000   0.0000
  0.000   0.0000
  0.000   0.0000
  0.000   0.0000
  0.000   0.0000
  0.000   0.0000
  0.000   0.0000
  0.000   0.0000
  0.000   0.0000
  0.000   0.0000
  0.000   0.0000
  0.000   0.0000
  0.000   0.0000
  0.000   0.0000
  0.000   0.0000
  0.000   0.0000
  0.000   0.0000
  0.000   0.0000
  0.000   0.0000
  0.000   0.0000
  0.000   0.0000
  0.000   0.0000
  0.000   0.0000
  0.000   0.0000
  0.000   0.0000
  0.000   0.0000
  0.000   0.0000
  0.000   0.0000
  0.000   0.0000
  0.000   0.0000
  0.000   0.0000
  0.000   0.0000
  0.000   0.0000
  0.000   0.0000
  0.000   0.0000
  0.000   0.0000
  0.000   0.0000
  0.000   0.0000
  0.000   0.0000
  0.000   0.0000
  0.000   0.0000
  0.000   0.0000
  0.000   0.0000
  0.000   0.0000
  0.000   0.0000
  0.000   0.0000
  0.000   0.0000
  0.000   0.0000
  0.000   0.0000
  0.000   0.0000
  0.000   0.0000
  0.000   0.0000
  0.000   0.0000
  0.000   0.0000
  0.000   0.0000
  0.000   0.0000
  0.000   0.0000
  0.000   0.0000
  0.000   0.0000
  0.000   0.0000
  0.000   0.0000
  0.000   0.0000
  0.000   0.0000
  0.000   0.0000
  0.000   0.0000
  0.000   0.0000
  0.000   0.0000
  0.000   0.0000
  0.000   0.0000
  0.000   0.0000
  0.000   0.0000
  0.000   0.0000
  0.000   0.0000
  0.000   0.0000
  0.000   0.0000
  0.000   0.0000
  0.000   0.0000
  0.000   0.0000
  0.000   0.0000
  0.000   0.0000
  0.000   0.0000
  0.000   0.0000
  0.000   0.0000
  0.000   0.0000
  0.000   0.0000
  0.000   0.0000
  0.000   0.0000
  0.000   0.0000
  0.000   0.0000
  0.000   0.0000
  0.000   0.0000
  0.000   0.0000
  0.000   0.0000
  0.000   0.0000
  0.000   0.0000
  0.000   0.0000
  0.000   0.0000
  0.000   0.0000
  0.000   0.0000
  0.000   0.0000
  0.000   0.0000
  0.000   0.0000
  0.000   0.0000
  0.000   0.0000
  0.000   0.0000
  0.000   0.0000
  0.000   0.0000
  0.000   0.0000
  0.000   0.0000
  0.000   0.0000
  0.000   0.0000
  0.000   0.0000
  0.000   0.0000
  0.000   0.0000
  0.000   0.0000
  0.000   0.0000
  0.000   0.0000
  0.000   0.0000
  0.000   0.0000
  0.000   0.0000
  0.000   0.0000
  0.000   0.0000
  0.000   0.0000
  0.000   0.0000
  0.000   0.0000
  0.000   0.0000
  0.000   0.0000
  0.000   0.0000
  0.000   0.0000
  0.000   0.0000
  0.000   0.0000
  0.000   0.0000
  0.000   0.0000
  0.000   0.0000
  0.000   0.0000
  0.000   0.0000
  0.000   0.0000
  0.000   0.0000
  0.000   0.0000
  0.000   0.0000
  0.000   0.0000
  0.000   0.0000
  0.000   0.0000
  0.000   0.0000
  0.000   0.0000
  0.000   0.0000
  0.000   0.0000
  0.000   0.0000
  0.000   0.0000
  0.000   0.0000
  0.000   0.0000
  0.000   0.0000
  0.000   0.0000
  0.000   0.0000
  0.000   0.0000
  0.000   0.0000
  0.000   0.0000
  0.000   0.0000
  0.000   0.0000
  0.000   0.0000
  0.000   0.0000
  0.000   0.0000
  0.000   0.0000
  0.000   0.0000
  0.000   0.0000
  0.000   0.0000
  0.000   0.0000
  0.000   0.0000
  0.000   0.0000
  0.000   0.0000
  0.000   0.0000
  0.000   0.0000
  0.000   0.0000
  0.000   0.0000
  0.000   0.0000
  0.000   0.0000
  0.000   0.0000
  0.000   0.0000
  0.000   0.0000
  0.000   0.0000
  0.000   0.0000
  0.000   0.0000
  0.000   0.0000
  0.000   0.0000
  0.000   0.0000
  0.000   0.0000
  0.000   0.0000
  0.000   0.0000
  0.000   0.0000
  0.000   0.0000
  0.000   0.0000
  0.000   0.0000
  0.000   0.0000
  0.000   0.0000
  0.000   0.0000
  0.000   0.0000
  0.000   0.0000
  0.000   0.0000
  0.000   0.0000
  0.000   0.0000
  0.000   0.0000
  0.000   0.0000
  0.000   0.0000
  0.000   0.0000
  0.000   0.0000
  0.000   0.0000
  0.000   0.0000
  0.000   0.0000
  0.000   0.0000
  0.000   0.0000
  0.000   0.0000
  0.000   0.0000
  0.000   0.0000
  0.000   0.0000
  0.000   0.0000
  0.000   0.0000
  0.000   0.0000
  0.000   0.0000
  0.000   0.0000
  0.000   0.0000
  0.000   0.0000
  0.000   0.0000
  0.000   0.0000
  0.000   0.0000
  0.000   0.0000
  0.000   0.0000
  0.000   0.0000
  0.000   0.0000
  0.000   0.0000
  0.000   0.0000
  0.000   0.0000
  0.000   0.0000
  0.000   0.0000
  0.000   0.0000
  0.000   0.0000
  0.000   0.0000
  0.000   0.0000
  0.000   0.0000
  0.000   0.0000
  0.000   0.0000
  0.000   0.0000
  0.000   0.0000
  0.000   0.0000
  0.000   0.0000
  0.000   0.0000
  0.000   0.0000
  0.000   0.0000
  0.000   0.0000
  0.000   0.0000
  0.000   0.0000
  0.000   0.0000
  0.000   0.0000
  0.000   0.0000
  0.000   0.0000
  0.000   0.0000
  0.000   0.0000
  0.000   0.0000
  0.000   0.0000
  0.000   0.0000
  0.000   0.0000
  0.000   0.0000
  0.000   0.0000
  0.000   0.0000
  0.000   0.0000
  0.000   0.0000
  0.000   0.0000
  0.000   0.0000
  0.000   0.0000
  0.000   0.0000
  0.000   0.0000
  0.000   0.0000
  0.000   0.0000
  0.000   0.0000
  0.000   0.0000
  0.000   0.0000
  0.000   0.0000
  0.000   0.0000
  0.000   0.0000
  0.000   0.0000
  0.000   0.0000
  0.000   0.0000
  0.000   0.0000
  0.000   0.0000
  0.000   0.0000
  0.000   0.0000
  0.000   0.0000
  0.000   0.0000
  0.000   0.0000
  0.000   0.0000
  0.000   0.0000
  0.000   0.0000
  0.000   0.0000
  0.000   0.0000
  0.000   0.0000
  0.000   0.0000
  0.000   0.0000
  0.000   0.0000
  0.000   0.0000
  0.000   0.0000
  0.000   0.0000
  0.000   0.0000
  0.000   0.0000
  0.000   0.0000
  0.000   0.0000
  0.000   0.0000
  0.000   0.0000
  0.000   0.0000
  0.000   0.0000
  0.000   0.0000
  0.000   0.0000
  0.000   0.0000
  0.000   0.0000
  0.000   0.0000
  0.000   0.0000
  0.000   0.0000
  0.000   0.0000
  0.000   0.0000
  0.000   0.0000
  0.000   0.0000
  0.000   0.0000
  0.000   0.0000
  0.000   0.0000
  0.000   0.0000
  0.000   0.0000
  0.000   0.0000
  0.000   0.0000
  0.000   0.0000
  0.000   0.0000
  0.000   0.0000
  0.000   0.0000
  0.000   0.0000
  0.000   0.0000
  0.000   0.0000
  0.000   0.0000
  0.000   0.0000
  0.000   0.0000
  0.000   0.0000
  0.000   0.0000
  0.000   0.0000
  0.000   0.0000
  0.000   0.0000
  0.000   0.0000
  0.000   0.0000
  0.000   0.0000
  0.000   0.0000
  0.000   0.0000
  0.000   0.0000
  0.000   0.0000
  0.000   0.0000
  0.000   0.0000
  0.000   0.0000
  0.000   0.0000
  0.000   0.0000
  0.000   0.0000
  0.000   0.0000
  0.000   0.0000
  0.000   0.0000
  0.000   0.0000
  0.000   0.0000
  0.000   0.0000
  0.000   0.0000
  0.000   0.0000
  0.000   0.0000
  0.000   0.0000
  0.000   0.0000
  0.000   0.0000
  0.000   0.0000
  0.000   0.0000
  0.000   0.0000
  0.000   0.0000
  0.000   0.0000
  0.000   0.0000
  0.000   0.0000
  0.000   0.0000
  0.000   0.0000
  0.000   0.0000
  0.000   0.0000
  0.000   0.0000
  0.000   0.0000
  0.000   0.0000
  0.000   0.0000
  0.000   0.0000
  0.000   0.0000
  0.000   0.0000
  0.000   0.0000
  0.000   0.0000
  0.000   0.0000
  0.000   0.0000
  0.000   0.0000
  0.000   0.0000
  0.000   0.0000
  0.000   0.0000
  0.000   0.0000
  0.000   0.0000
  0.000   0.0000
  0.000   0.0000
  0.000   0.0000
  0.000   0.0000
  0.000   0.0000
  0.000   0.0000
  0.000   0.0000
  0.000   0.0000
  0.000   0.0000
  0.000   0.0000
  0.000   0.0000
  0.000   0.0000
  0.000   0.0000
  0.000   0.0000
  0.000   0.0000
  0.000   0.0000
  0.000   0.0000
  0.000   0.0000
  0.000   0.0000
  0.000   0.0000
  0.000   0.0000
  0.000   0.0000
  0.000   0.0000
  0.000   0.0000
  0.000   0.0000
  0.000   0.0000
  0.000   0.0000
  0.000   0.0000
  0.000   0.0000
  0.000   0.0000
  0.000   0.0000
  0.000   0.0000
  0.000   0.0000
  0.000   0.0000
  0.000   0.0000
  0.000   0.0000
  0.000   0.0000
  0.000   0.0000
  0.000   0.0000
  0.000   0.0000
  0.000   0.0000
  0.000   0.0000
  0.000   0.0000
  0.000   0.0000
