Name: Dacite
Type: Rock
Class: Intermediate
Subclass: Felsic
Particle Size: Whole Rock Chips
Sample No.: AP-960-157b
Owner: United States Geological Survey, L. C. Rowan
Wavelength range: 0.405 - 14.05 um
Origin: Iberian Pyrite Belt, Spain

Description: Dacite, chloritic





Measurement: Directional Hemispherical Reflectance
First Column: X
Second Column: Y
X Units: Wavelength (micrometers)
Y Units: Reflectance (percent)
First X Value: 14.05105
Last X Value: 0.40500
Number of X Values: 2530
Additional Information: dac157ba.txt

 14.051   1.7098
 14.013   1.6377
 13.975   1.9261
 13.938   1.9776
 13.900   2.1424
 13.863   2.0394
 13.826   2.0703
 13.790   1.9467
 13.753   1.9158
 13.717   1.9158
 13.680   2.1012
 13.644   2.0806
 13.609   2.0703
 13.573   2.0188
 13.538   2.0703
 13.502   2.0909
 13.467   2.2351
 13.432   2.2454
 13.398   2.2763
 13.363   2.1836
 13.329   2.1939
 13.295   2.1939
 13.261   2.3484
 13.227   2.3175
 13.193   2.3278
 13.160   2.3381
 13.126   2.4102
 13.093   2.3690
 13.060   2.5132
 13.027   2.5338
 12.995   2.4823
 12.962   2.4205
 12.930   2.5029
 12.898   2.5132
 12.866   2.7295
 12.834   2.8428
 12.802   2.9149
 12.771   2.8119
 12.739   2.6677
 12.708   2.5956
 12.677   2.5338
 12.646   2.4308
 12.616   2.5544
 12.585   2.5647
 12.554   2.6162
 12.524   2.6162
 12.494   2.6883
 12.464   2.5853
 12.434   2.5235
 12.404   2.3896
 12.375   2.2763
 12.345   2.0703
 12.316   2.0188
 12.287   1.9982
 12.258   1.9982
 12.229   2.0394
 12.200   2.1424
 12.171   2.1424
 12.143   2.1630
 12.115   2.1836
 12.086   2.3690
 12.058   2.4308
 12.030   2.4102
 12.002   2.3072
 11.975   2.3690
 11.947   2.3587
 11.920   2.4823
 11.892   2.5235
 11.865   2.5029
 11.838   2.4823
 11.811   2.5956
 11.784   2.5956
 11.757   2.7089
 11.731   2.6574
 11.704   2.5853
 11.678   2.6677
 11.652   2.7810
 11.626   2.6677
 11.600   2.6780
 11.574   2.6780
 11.548   2.7501
 11.522   2.8840
 11.497   3.0179
 11.471   2.8737
 11.446   2.8634
 11.421   2.8943
 11.396   2.9767
 11.371   2.9561
 11.346   3.0488
 11.321   3.0797
 11.297   3.0694
 11.272   2.9767
 11.248   2.9870
 11.223   3.0385
 11.199   3.0179
 11.175   2.9870
 11.151   3.0385
 11.127   3.0282
 11.103   3.1415
 11.079   3.1209
 11.056   3.1209
 11.032   3.1518
 11.009   3.2239
 10.985   3.1209
 10.962   3.2033
 10.939   3.3372
 10.916   3.3887
 10.893   3.2754
 10.870   3.2548
 10.848   3.1621
 10.825   3.1415
 10.802   3.1827
 10.780   3.3166
 10.758   3.3681
 10.735   3.3578
 10.713   3.3372
 10.691   3.4505
 10.669   3.4608
 10.647   3.4711
 10.625   3.4814
 10.604   3.5020
 10.582   3.4711
 10.560   3.5329
 10.539   3.5741
 10.518   3.6153
 10.496   3.5947
 10.475   3.6462
 10.454   3.6565
 10.433   3.6668
 10.412   3.6874
 10.391   3.8110
 10.370   3.7698
 10.350   3.7389
 10.329   3.7183
 10.309   3.8007
 10.288   3.8522
 10.268   3.9140
 10.247   3.9552
 10.227   4.0170
 10.207   4.0067
 10.187   4.0479
 10.167   4.0685
 10.147   4.1303
 10.127   4.2024
 10.108   4.2848
 10.088   4.3054
 10.068   4.3775
 10.049   4.4290
 10.029   4.4908
 10.010   4.4084
  9.991   4.4599
  9.972   4.4908
  9.952   4.5526
  9.933   4.5526
  9.914   4.5938
  9.895   4.6144
  9.877   4.6865
  9.858   4.6350
  9.839   4.6144
  9.821   4.5938
  9.802   4.5423
  9.783   4.5526
  9.765   4.7998
  9.747   4.9131
  9.728   4.9440
  9.710   4.9234
  9.692   5.0161
  9.674   5.0779
  9.656   5.1294
  9.638   5.0779
  9.620   5.2015
  9.602   5.2530
  9.585   5.2221
  9.567   5.1809
  9.549   5.1912
  9.532   5.0985
  9.514   5.0882
  9.497   5.0573
  9.479   5.1603
  9.462   5.2221
  9.445   5.2736
  9.428   5.3457
  9.411   5.4796
  9.394   5.6650
  9.377   5.8710
  9.360   5.9328
  9.343   6.1182
  9.326   6.2006
  9.309   6.2624
  9.293   6.2933
  9.276   6.3654
  9.259   6.2315
  9.243   6.0667
  9.226   6.0358
  9.210   6.1594
  9.194   6.0976
  9.178   6.0873
  9.161   6.0873
  9.145   6.0255
  9.129   5.8916
  9.113   5.8298
  9.097   5.7371
  9.081   5.8092
  9.065   5.7680
  9.049   5.6959
  9.034   5.6032
  9.018   5.6032
  9.002   5.5826
  8.987   5.5929
  8.971   5.5105
  8.956   5.5002
  8.940   5.4281
  8.925   5.4075
  8.909   5.3766
  8.894   5.4384
  8.879   5.4899
  8.864   5.5517
  8.849   5.4487
  8.834   5.3457
  8.819   5.3045
  8.804   5.3560
  8.789   5.2942
  8.774   5.2015
  8.759   5.1294
  8.744   5.2015
  8.730   5.1191
  8.715   5.0264
  8.700   4.9440
  8.686   4.8616
  8.671   4.6762
  8.657   4.5320
  8.642   4.3363
  8.628   4.0994
  8.614   3.9861
  8.599   4.1612
  8.585   4.3569
  8.571   4.5835
  8.557   4.7174
  8.543   4.7689
  8.529   4.7483
  8.515   4.8513
  8.501   4.9646
  8.487   4.9955
  8.473   4.9646
  8.459   5.0985
  8.445   5.1397
  8.431   5.1088
  8.418   5.0367
  8.404   5.0985
  8.391   5.1397
  8.377   5.1809
  8.363   5.1500
  8.350   5.1191
  8.337   5.0985
  8.323   5.1603
  8.310   5.0985
  8.297   5.0882
  8.283   5.1397
  8.270   5.2221
  8.257   5.2221
  8.244   5.2633
  8.231   5.2633
  8.218   5.3045
  8.205   5.2530
  8.192   5.1706
  8.179   5.1191
  8.166   5.0367
  8.153   4.8719
  8.140   4.6865
  8.128   4.4908
  8.115   4.3878
  8.102   4.2024
  8.090   3.9861
  8.077   3.8007
  8.064   3.6874
  8.052   3.5123
  8.039   3.4196
  8.027   3.2548
  8.015   3.1518
  8.002   3.0488
  7.990   2.9973
  7.978   2.8737
  7.965   2.7707
  7.953   2.6883
  7.941   2.5956
  7.929   2.5029
  7.917   2.5029
  7.905   2.4102
  7.893   2.3175
  7.881   2.2454
  7.869   2.2557
  7.857   2.1939
  7.845   2.1527
  7.833   2.1424
  7.821   2.1321
  7.809   2.0394
  7.798   1.9982
  7.786   1.9673
  7.774   1.9467
  7.763   1.9879
  7.751   2.0909
  7.739   2.0394
  7.728   1.9570
  7.716   1.8849
  7.705   1.9261
  7.694   1.9467
  7.682   1.9467
  7.671   1.9261
  7.659   1.9158
  7.648   1.8437
  7.637   1.8437
  7.626   1.8128
  7.614   1.7819
  7.603   1.7098
  7.592   1.6995
  7.581   1.7201
  7.570   1.7922
  7.559   1.8025
  7.548   1.8128
  7.537   1.7613
  7.526   1.7613
  7.515   1.8128
  7.504   1.8437
  7.493   1.7716
  7.483   1.7510
  7.472   1.7304
  7.461   1.7613
  7.450   1.6995
  7.440   1.7304
  7.429   1.7510
  7.418   1.6892
  7.408   1.6583
  7.397   1.7201
  7.387   1.6789
  7.376   1.6377
  7.366   1.6377
  7.355   1.6480
  7.345   1.6892
  7.334   1.7407
  7.324   1.6789
  7.314   1.6480
  7.303   1.6583
  7.293   1.6892
  7.283   1.5759
  7.273   1.5244
  7.263   1.5347
  7.252   1.6068
  7.242   1.5965
  7.232   1.5656
  7.222   1.5553
  7.212   1.6068
  7.202   1.6789
  7.192   1.7510
  7.182   1.6892
  7.172   1.6274
  7.162   1.6583
  7.152   1.6995
  7.143   1.6789
  7.133   1.7098
  7.123   1.6789
  7.113   1.6789
  7.103   1.5965
  7.094   1.5965
  7.084   1.5759
  7.074   1.6583
  7.065   1.7613
  7.055   1.8025
  7.046   1.7407
  7.036   1.6789
  7.026   1.5965
  7.017   1.5862
  7.007   1.6068
  6.998   1.6480
  6.989   1.6583
  6.979   1.6583
  6.970   1.6274
  6.960   1.6274
  6.951   1.6480
  6.942   1.6892
  6.932   1.6995
  6.923   1.6892
  6.914   1.6583
  6.905   1.6480
  6.896   1.6377
  6.886   1.6583
  6.877   1.6789
  6.868   1.7201
  6.859   1.6995
  6.850   1.6892
  6.841   1.7201
  6.832   1.7819
  6.823   1.7510
  6.814   1.7407
  6.805   1.6892
  6.796   1.7201
  6.787   1.7510
  6.778   1.8231
  6.770   1.8025
  6.761   1.8334
  6.752   1.8643
  6.743   1.9158
  6.734   1.9055
  6.726   1.9570
  6.717   1.9982
  6.708   2.0085
  6.700   2.0188
  6.691   2.0394
  6.682   1.9879
  6.674   2.0291
  6.665   2.0394
  6.657   2.0703
  6.648   2.0703
  6.640   2.0703
  6.631   2.0703
  6.623   2.0497
  6.614   2.0085
  6.606   2.0497
  6.597   2.0497
  6.589   2.0291
  6.581   1.9982
  6.572   2.0291
  6.564   2.0909
  6.556   2.0806
  6.547   1.9673
  6.539   1.9673
  6.531   1.9467
  6.523   1.9364
  6.514   1.9364
  6.506   1.9570
  6.498   1.9673
  6.490   1.9776
  6.482   1.9673
  6.474   1.9879
  6.466   1.9879
  6.458   2.0085
  6.450   2.0394
  6.442   2.0600
  6.434   2.0600
  6.426   2.0497
  6.418   2.0188
  6.410   2.0291
  6.402   1.9982
  6.394   2.0085
  6.386   2.0497
  6.378   2.0909
  6.370   2.0600
  6.363   2.0188
  6.355   2.0188
  6.347   2.0291
  6.339   2.0085
  6.332   2.0497
  6.324   2.0806
  6.316   2.1012
  6.308   2.0703
  6.301   2.0394
  6.293   2.0291
  6.286   2.0600
  6.278   2.0188
  6.270   2.0188
  6.263   2.0291
  6.255   2.0291
  6.248   1.9879
  6.240   1.9364
  6.233   1.8952
  6.225   1.9158
  6.218   1.9673
  6.210   1.9776
  6.203   1.9055
  6.195   1.8540
  6.188   1.8334
  6.181   1.7819
  6.173   1.6789
  6.166   1.6686
  6.159   1.6995
  6.151   1.7613
  6.144   1.7716
  6.137   1.7510
  6.130   1.6789
  6.122   1.6892
  6.115   1.7098
  6.108   1.7510
  6.101   1.7510
  6.094   1.7510
  6.086   1.7407
  6.079   1.6995
  6.072   1.6686
  6.065   1.7201
  6.058   1.7819
  6.051   1.7922
  6.044   1.7510
  6.037   1.7407
  6.030   1.7510
  6.023   1.7304
  6.016   1.7098
  6.009   1.6789
  6.002   1.6686
  5.995   1.7407
  5.988   1.7510
  5.981   1.7613
  5.974   1.7819
  5.967   1.8231
  5.960   1.8334
  5.954   1.8746
  5.947   1.9261
  5.940   1.9776
  5.933   1.9673
  5.926   1.9570
  5.920   1.9673
  5.913   2.0394
  5.906   2.0188
  5.899   2.0394
  5.893   2.1321
  5.886   2.1939
  5.879   2.2248
  5.873   2.3072
  5.866   2.3690
  5.859   2.3793
  5.853   2.3587
  5.846   2.3999
  5.840   2.4411
  5.833   2.4823
  5.827   2.5132
  5.820   2.5029
  5.813   2.4926
  5.807   2.5338
  5.800   2.5338
  5.794   2.5647
  5.788   2.5956
  5.781   2.6677
  5.775   2.7501
  5.768   2.7707
  5.762   2.8016
  5.755   2.8737
  5.749   2.8943
  5.743   2.9355
  5.736   2.9458
  5.730   2.9973
  5.724   3.1106
  5.717   3.2548
  5.711   3.3269
  5.705   3.3990
  5.698   3.5226
  5.692   3.6462
  5.686   3.7492
  5.680   3.9037
  5.674   4.0376
  5.667   4.0891
  5.661   4.1303
  5.655   4.2333
  5.649   4.3260
  5.643   4.3878
  5.637   4.4496
  5.630   4.5217
  5.624   4.5526
  5.618   4.6041
  5.612   4.6453
  5.606   4.6865
  5.600   4.7689
  5.594   4.8410
  5.588   4.8307
  5.582   4.8204
  5.576   4.8822
  5.570   5.0367
  5.564   5.1294
  5.558   5.2015
  5.552   5.2839
  5.546   5.3457
  5.540   5.4075
  5.534   5.4796
  5.528   5.5311
  5.523   5.5723
  5.517   5.6238
  5.511   5.6753
  5.505   5.7680
  5.499   5.8504
  5.493   5.8813
  5.487   5.9328
  5.482   6.0049
  5.476   6.1285
  5.470   6.1903
  5.464   6.1800
  5.459   6.1491
  5.453   6.2109
  5.447   6.2933
  5.441   6.3345
  5.436   6.3139
  5.430   6.3345
  5.424   6.3654
  5.419   6.3551
  5.413   6.3139
  5.407   6.2933
  5.402   6.3036
  5.396   6.3139
  5.390   6.2521
  5.385   6.2109
  5.379   6.1903
  5.374   6.1388
  5.368   6.1594
  5.363   6.1800
  5.357   6.1491
  5.352   6.1491
  5.346   6.1594
  5.341   6.1903
  5.335   6.2315
  5.330   6.2727
  5.324   6.2521
  5.319   6.2212
  5.313   6.2212
  5.308   6.2624
  5.302   6.2933
  5.297   6.3242
  5.291   6.3036
  5.286   6.3036
  5.281   6.3551
  5.275   6.4272
  5.270   6.4478
  5.265   6.4890
  5.259   6.4890
  5.254   6.5405
  5.249   6.5920
  5.243   6.6126
  5.238   6.6435
  5.233   6.7259
  5.227   6.8186
  5.222   6.9319
  5.217   6.9525
  5.212   6.9319
  5.206   6.9628
  5.201   6.9628
  5.196   6.9525
  5.191   6.9319
  5.186   6.9010
  5.180   6.9422
  5.175   7.0143
  5.170   7.0246
  5.165   7.0040
  5.160   6.9937
  5.155   6.9937
  5.150   6.9731
  5.145   6.9628
  5.139   6.9834
  5.134   6.9937
  5.129   6.9731
  5.124   6.9113
  5.119   6.8907
  5.114   6.9010
  5.109   6.9113
  5.104   6.9216
  5.099   6.9628
  5.094   6.9731
  5.089   6.9422
  5.084   6.9010
  5.079   6.9525
  5.074   6.9422
  5.069   6.8907
  5.064   6.8907
  5.059   6.9422
  5.054   6.9113
  5.049   6.8186
  5.044   6.8083
  5.040   6.9216
  5.035   6.9525
  5.030   6.9216
  5.025   6.8701
  5.020   6.8701
  5.015   6.9010
  5.010   6.9216
  5.005   6.9422
  5.001   6.9216
  4.996   6.8907
  4.991   6.9422
  4.986   6.9731
  4.981   6.9937
  4.977   6.9731
  4.972   6.9937
  4.967   7.0452
  4.962   7.0658
  4.958   7.0864
  4.953   7.1482
  4.948   7.1585
  4.943   7.1482
  4.939   7.1688
  4.934   7.1894
  4.929   7.2203
  4.925   7.2203
  4.920   7.1997
  4.915   7.2203
  4.911   7.2306
  4.906   7.2821
  4.901   7.3851
  4.897   7.4675
  4.892   7.4984
  4.888   7.5396
  4.883   7.5705
  4.878   7.6323
  4.874   7.7250
  4.869   7.7250
  4.865   7.7250
  4.860   7.7868
  4.856   7.8280
  4.851   7.8280
  4.846   7.7971
  4.842   7.8486
  4.837   7.9619
  4.833   8.0237
  4.828   7.9928
  4.824   8.0031
  4.819   8.1164
  4.815   8.1679
  4.810   8.1370
  4.806   8.1370
  4.802   8.1370
  4.797   8.1576
  4.793   8.1988
  4.788   8.1885
  4.784   8.2194
  4.779   8.2297
  4.775   8.2091
  4.771   8.2606
  4.766   8.3018
  4.762   8.3018
  4.758   8.2812
  4.753   8.2812
  4.749   8.4151
  4.744   8.5284
  4.740   8.5799
  4.736   8.5799
  4.731   8.5696
  4.727   8.5696
  4.723   8.5902
  4.719   8.5902
  4.714   8.5593
  4.710   8.5181
  4.706   8.5387
  4.701   8.6211
  4.697   8.6314
  4.693   8.5902
  4.689   8.6005
  4.684   8.5902
  4.680   8.5799
  4.676   8.5902
  4.672   8.6417
  4.668   8.6623
  4.663   8.6932
  4.659   8.7550
  4.655   8.7962
  4.651   8.8168
  4.647   8.8786
  4.643   8.9198
  4.638   8.9301
  4.634   8.9713
  4.630   9.0537
  4.626   9.0640
  4.622   9.0949
  4.618   9.1052
  4.614   9.1155
  4.610   9.1670
  4.605   9.1567
  4.601   9.1464
  4.597   9.1773
  4.593   9.3009
  4.589   9.3524
  4.585   9.3627
  4.581   9.4348
  4.577   9.4760
  4.573   9.4554
  4.569   9.4451
  4.565   9.5069
  4.561   9.5275
  4.557   9.4554
  4.553   9.4451
  4.549   9.5069
  4.545   9.5275
  4.541   9.5275
  4.537   9.5275
  4.533   9.5687
  4.529   9.6099
  4.525   9.6408
  4.521   9.5996
  4.517   9.5378
  4.513   9.5069
  4.509   9.5378
  4.505   9.5069
  4.502   9.4966
  4.498   9.5172
  4.494   9.5069
  4.490   9.5069
  4.486   9.4966
  4.482   9.4657
  4.478   9.4348
  4.474   9.4554
  4.470   9.4966
  4.467   9.4863
  4.463   9.5275
  4.459   9.5481
  4.455   9.5790
  4.451   9.6408
  4.447   9.7129
  4.444   9.8159
  4.440   9.8674
  4.436   9.8983
  4.432   9.8468
  4.428   9.8365
  4.425   9.9395
  4.421  10.0631
  4.417  10.0837
  4.413  10.0631
  4.410  10.1146
  4.406  10.2073
  4.402  10.3103
  4.398  10.4030
  4.395  10.4339
  4.391  10.4442
  4.387  10.4648
  4.384  10.4854
  4.380  10.4957
  4.376  10.5266
  4.372  10.6399
  4.369  10.7017
  4.365  10.7017
  4.361  10.7326
  4.358  10.7841
  4.354  10.8047
  4.350  10.8150
  4.347  10.7841
  4.343  10.7738
  4.340  10.7738
  4.336  10.8356
  4.332  10.9180
  4.329  10.9180
  4.325  10.8871
  4.321  10.8665
  4.318  10.8562
  4.314  10.8665
  4.311  10.8871
  4.307  10.9180
  4.304  10.8871
  4.300  10.8974
  4.296  10.8562
  4.293  10.8665
  4.289  10.9077
  4.286  10.8768
  4.282  10.8871
  4.279  10.8665
  4.275  10.8974
  4.272  10.9695
  4.268  10.9283
  4.265  10.8974
  4.261  10.8768
  4.258  10.8665
  4.254  10.8665
  4.251  10.8974
  4.247  10.9180
  4.244  10.8768
  4.240  10.8356
  4.237  10.9695
  4.233  11.0416
  4.230  10.9901
  4.226  10.9180
  4.223  10.8562
  4.219  10.7841
  4.216  10.7429
  4.213  10.6296
  4.209  10.6811
  4.206  10.7120
  4.202  10.6193
  4.199  10.6193
  4.196  10.6399
  4.192  10.6605
  4.189  10.7120
  4.185  10.6811
  4.182  10.5678
  4.179  10.4854
  4.175  10.5575
  4.172  10.6296
  4.169  10.5884
  4.165  10.5163
  4.162  10.5369
  4.159  10.5060
  4.155  10.4854
  4.152  10.4854
  4.149  10.4339
  4.145  10.4030
  4.142  10.3721
  4.139  10.3824
  4.135  10.4442
  4.132  10.3824
  4.129  10.3412
  4.126  10.3206
  4.122  10.2897
  4.119  10.2382
  4.116  10.2588
  4.112  10.3000
  4.109  10.2176
  4.106  10.1146
  4.103  10.1043
  4.099  10.1249
  4.096  10.1249
  4.093  10.0940
  4.090  10.1249
  4.086  10.0528
  4.083   9.9910
  4.080   9.9601
  4.077   9.8983
  4.074   9.8880
  4.070   9.9086
  4.067   9.8880
  4.064   9.9086
  4.061   9.9704
  4.058   9.8880
  4.055   9.8365
  4.051   9.7541
  4.048   9.6717
  4.045   9.6717
  4.042   9.6099
  4.039   9.6511
  4.036   9.7335
  4.032   9.6511
  4.029   9.5584
  4.026   9.5584
  4.023   9.5481
  4.020   9.5481
  4.017   9.5481
  4.014   9.5069
  4.011   9.4451
  4.008   9.4142
  4.004   9.3112
  4.001   9.3524
  3.998   9.3318
  3.995   9.3318
  3.992   9.3833
  3.989   9.4039
  3.986   9.3627
  3.983   9.2700
  3.980   9.3112
  3.977   9.3730
  3.974   9.2700
  3.971   9.2082
  3.968   9.1361
  3.965   9.1876
  3.962   9.2803
  3.959   9.2494
  3.956   9.1258
  3.953   9.0949
  3.950   9.1155
  3.947   9.1773
  3.944   9.2288
  3.941   9.1876
  3.938   9.0846
  3.935   9.0949
  3.932   9.0434
  3.929   9.0743
  3.926   9.1464
  3.923   9.1670
  3.920   9.0949
  3.917   8.9507
  3.914   8.9095
  3.911   9.0434
  3.908   9.0846
  3.905   9.0743
  3.902   9.0228
  3.899   8.9404
  3.896   8.8683
  3.893   8.8683
  3.890   8.8477
  3.887   8.8168
  3.884   8.8065
  3.882   8.8065
  3.879   8.7962
  3.876   8.8168
  3.873   8.8168
  3.870   8.7962
  3.867   8.7653
  3.864   8.7447
  3.861   8.6829
  3.858   8.6520
  3.856   8.6211
  3.853   8.5902
  3.850   8.5490
  3.847   8.5284
  3.844   8.4357
  3.841   8.4254
  3.838   8.4563
  3.836   8.4563
  3.833   8.3842
  3.830   8.3636
  3.827   8.3842
  3.824   8.3533
  3.822   8.3327
  3.819   8.2709
  3.816   8.1679
  3.813   8.2091
  3.810   8.1473
  3.807   8.0546
  3.805   7.9619
  3.802   7.9825
  3.799   8.0340
  3.796   8.0752
  3.794   8.0546
  3.791   7.9928
  3.788   7.9207
  3.785   7.9001
  3.782   7.8486
  3.780   7.7765
  3.777   7.7456
  3.774   7.8177
  3.771   7.8074
  3.769   7.7559
  3.766   7.6426
  3.763   7.5602
  3.761   7.4881
  3.758   7.5190
  3.755   7.5602
  3.752   7.5911
  3.750   7.5293
  3.747   7.5190
  3.744   7.5396
  3.742   7.4778
  3.739   7.3027
  3.736   7.2718
  3.733   7.2718
  3.731   7.3027
  3.728   7.2924
  3.725   7.2615
  3.723   7.1379
  3.720   7.1173
  3.717   7.0864
  3.715   7.2409
  3.712   7.2100
  3.709   7.0452
  3.707   7.0349
  3.704   7.0864
  3.702   7.0040
  3.699   6.9422
  3.696   6.9319
  3.694   6.9834
  3.691   7.0452
  3.688   7.0143
  3.686   6.8495
  3.683   6.7362
  3.680   6.8083
  3.678   6.8392
  3.675   6.7259
  3.673   6.7053
  3.670   6.8083
  3.667   6.8186
  3.665   6.7156
  3.662   6.6538
  3.660   6.4684
  3.657   6.4581
  3.655   6.4684
  3.652   6.4993
  3.649   6.5920
  3.647   6.6126
  3.644   6.4581
  3.642   6.3860
  3.639   6.4066
  3.637   6.3757
  3.634   6.3345
  3.632   6.3551
  3.629   6.3860
  3.626   6.3448
  3.624   6.2418
  3.621   6.3139
  3.619   6.3139
  3.616   6.2933
  3.614   6.2624
  3.611   6.2006
  3.609   6.0873
  3.606   6.0667
  3.604   6.0461
  3.601   6.1182
  3.599   6.0976
  3.596   6.0461
  3.594   5.8916
  3.591   5.8504
  3.589   5.9431
  3.586   6.0667
  3.584   5.9534
  3.581   5.8607
  3.579   5.8607
  3.576   5.7680
  3.574   5.7165
  3.571   5.7371
  3.569   5.7165
  3.567   5.6959
  3.564   5.6032
  3.562   5.5620
  3.559   5.5105
  3.557   5.5517
  3.554   5.5311
  3.552   5.5002
  3.549   5.4384
  3.547   5.4178
  3.545   5.3457
  3.542   5.2736
  3.540   5.2118
  3.537   5.2221
  3.535   5.1500
  3.533   5.1088
  3.530   5.1191
  3.528   5.0367
  3.525   4.9749
  3.523   5.0367
  3.521   4.9337
  3.518   4.7895
  3.516   4.7380
  3.513   4.7586
  3.511   4.6968
  3.509   4.5629
  3.506   4.4187
  3.504   4.3981
  3.502   4.3775
  3.499   4.4187
  3.497   4.4187
  3.494   4.4084
  3.492   4.3466
  3.490   4.3054
  3.487   4.3157
  3.485   4.3466
  3.483   4.1921
  3.480   4.0170
  3.478   4.0376
  3.476   4.1509
  3.473   4.1303
  3.471   4.0273
  3.469   3.9037
  3.466   3.9140
  3.464   3.9037
  3.462   3.8934
  3.460   3.8831
  3.457   3.9346
  3.455   3.9449
  3.453   3.8831
  3.450   3.8316
  3.448   3.8522
  3.446   3.8728
  3.443   3.8007
  3.441   3.7080
  3.439   3.8007
  3.437   3.7389
  3.434   3.6977
  3.432   3.7389
  3.430   3.6874
  3.428   3.5432
  3.425   3.5535
  3.423   3.5638
  3.421   3.5329
  3.418   3.4299
  3.416   3.4711
  3.414   3.5226
  3.412   3.5947
  3.409   3.5947
  3.407   3.5535
  3.405   3.6359
  3.403   3.6771
  3.401   3.5638
  3.398   3.5638
  3.396   3.5432
  3.394   3.5535
  3.392   3.5123
  3.389   3.5741
  3.387   3.6153
  3.385   3.6359
  3.383   3.6874
  3.381   3.6874
  3.378   3.6874
  3.376   3.6874
  3.374   3.6153
  3.372   3.7492
  3.370   3.8110
  3.367   3.8625
  3.365   3.8625
  3.363   3.8522
  3.361   3.8110
  3.359   3.8316
  3.357   3.8831
  3.354   4.0067
  3.352   4.0273
  3.350   3.9655
  3.348   3.8934
  3.346   3.9449
  3.344   4.0994
  3.341   4.3054
  3.339   4.3363
  3.337   4.2745
  3.335   4.1509
  3.333   4.0891
  3.331   4.0582
  3.329   4.1200
  3.326   4.2127
  3.324   4.2436
  3.322   4.1097
  3.320   3.9449
  3.318   3.9037
  3.316   3.9861
  3.314   4.0685
  3.312   3.9964
  3.309   3.9552
  3.307   4.1303
  3.305   4.1406
  3.303   3.9964
  3.301   3.8625
  3.299   3.8316
  3.297   3.7595
  3.295   3.7904
  3.293   3.8007
  3.291   3.7595
  3.288   3.7698
  3.286   3.7492
  3.284   3.7595
  3.282   3.7389
  3.280   3.7286
  3.278   3.7389
  3.276   3.7389
  3.274   3.7492
  3.272   3.7183
  3.270   3.6874
  3.268   3.5535
  3.266   3.5432
  3.264   3.5123
  3.262   3.4917
  3.259   3.5226
  3.257   3.5638
  3.255   3.5329
  3.253   3.6153
  3.251   3.5329
  3.249   3.4917
  3.247   3.5844
  3.245   3.5226
  3.243   3.3990
  3.241   3.3990
  3.239   3.4196
  3.237   3.2960
  3.235   3.2239
  3.233   3.3372
  3.231   3.2651
  3.229   3.2342
  3.227   3.2651
  3.225   3.3578
  3.223   3.3475
  3.221   3.3166
  3.219   3.1930
  3.217   3.1724
  3.215   3.1827
  3.213   3.1518
  3.211   3.0694
  3.209   3.1312
  3.207   3.1209
  3.205   3.0488
  3.203   3.0900
  3.201   3.1827
  3.199   3.0900
  3.197   3.0385
  3.195   3.0179
  3.193   2.9870
  3.191   2.9767
  3.189   3.0694
  3.187   3.1415
  3.185   3.0900
  3.183   2.9664
  3.182   2.9767
  3.180   2.9252
  3.178   2.9664
  3.176   2.9355
  3.174   2.9149
  3.172   2.9973
  3.170   3.0282
  3.168   2.9252
  3.166   2.9252
  3.164   2.9252
  3.162   2.9252
  3.160   2.8737
  3.158   2.8531
  3.156   2.7810
  3.154   2.7604
  3.152   2.7913
  3.151   2.8428
  3.149   2.8428
  3.147   2.8325
  3.145   2.7604
  3.143   2.8325
  3.141   2.8325
  3.139   2.7913
  3.137   2.6883
  3.135   2.7295
  3.133   2.5853
  3.132   2.5750
  3.130   2.7295
  3.128   2.7089
  3.126   2.6162
  3.124   2.6059
  3.122   2.5441
  3.120   2.5029
  3.118   2.4411
  3.117   2.3690
  3.115   2.3896
  3.113   2.5338
  3.111   2.5956
  3.109   2.5441
  3.107   2.5029
  3.105   2.5956
  3.103   2.5750
  3.102   2.4823
  3.100   2.4617
  3.098   2.4102
  3.096   2.3175
  3.094   2.3793
  3.092   2.4617
  3.091   2.4720
  3.089   2.3484
  3.087   2.3278
  3.085   2.3999
  3.083   2.2969
  3.081   2.2454
  3.079   2.3690
  3.078   2.3484
  3.076   2.4514
  3.074   2.4308
  3.072   2.3896
  3.070   2.3793
  3.069   2.3690
  3.067   2.3278
  3.065   2.3587
  3.063   2.2660
  3.061   2.3381
  3.060   2.4823
  3.058   2.4514
  3.056   2.3587
  3.054   2.2145
  3.052   2.1527
  3.051   2.2145
  3.049   2.1115
  3.047   2.2454
  3.045   2.3484
  3.043   2.3690
  3.042   2.3381
  3.040   2.4205
  3.038   2.3587
  3.036   2.2351
  3.034   2.1424
  3.033   2.1836
  3.031   2.1321
  3.029   2.2351
  3.027   2.3484
  3.026   2.4411
  3.024   2.5441
  3.022   2.4720
  3.020   2.2248
  3.019   2.1733
  3.017   2.1733
  3.015   2.1630
  3.013   2.1321
  3.012   2.2454
  3.010   2.2145
  3.008   2.1939
  3.006   1.9158
  3.005   1.9055
  3.003   2.0394
  3.001   2.0600
  2.999   2.0085
  2.998   2.1733
  2.996   2.2351
  2.994   2.1115
  2.992   2.1012
  2.991   2.0188
  2.989   1.9055
  2.987   1.9982
  2.986   1.8952
  2.984   1.9673
  2.982   2.1321
  2.980   2.1836
  2.979   2.1527
  2.977   2.0497
  2.975   2.0497
  2.974   2.1115
  2.972   2.1012
  2.970   2.1424
  2.968   2.0188
  2.967   1.8025
  2.965   1.8746
  2.963   2.0703
  2.962   1.9673
  2.960   2.0291
  2.958   2.0909
  2.957   2.1012
  2.955   2.1733
  2.953   2.1424
  2.952   1.9879
  2.950   1.9776
  2.948   2.0085
  2.947   2.1012
  2.945   1.9776
  2.943   1.8437
  2.942   1.9673
  2.940   1.9776
  2.938   1.8334
  2.937   2.1012
  2.935   2.2248
  2.933   2.1527
  2.932   2.1218
  2.930   2.0291
  2.928   1.8025
  2.927   1.8025
  2.925   1.8540
  2.923   1.9055
  2.922   2.0085
  2.920   2.0703
  2.918   1.9879
  2.917   2.0600
  2.915   2.1733
  2.913   2.1424
  2.912   2.0909
  2.910   2.1733
  2.909   2.0394
  2.907   2.0085
  2.905   2.1115
  2.904   2.1321
  2.902   2.0085
  2.900   2.1630
  2.899   2.0394
  2.897   1.9467
  2.896   1.9879
  2.894   1.9673
  2.892   1.9055
  2.891   1.9364
  2.889   1.9879
  2.887   2.0806
  2.886   2.1424
  2.884   2.1012
  2.883   2.0909
  2.881   2.2454
  2.879   2.2145
  2.878   2.1836
  2.876   1.9776
  2.875   2.0703
  2.873   2.1321
  2.871   2.1012
  2.870   2.1527
  2.868   2.3278
  2.867   2.2248
  2.865   2.1012
  2.864   2.1836
  2.862   2.4205
  2.860   2.4102
  2.859   2.4205
  2.857   2.2248
  2.856   2.1836
  2.854   2.2660
  2.853   2.2866
  2.851   2.1939
  2.849   2.2454
  2.848   2.3175
  2.846   2.2866
  2.845   2.3484
  2.843   2.3690
  2.842   2.2969
  2.840   2.2763
  2.838   1.9982
  2.837   2.1836
  2.835   2.6677
  2.834   2.6883
  2.832   2.3896
  2.831   2.3587
  2.829   2.4411
  2.828   2.5647
  2.826   2.4926
  2.825   2.5750
  2.823   2.6471
  2.821   2.6677
  2.820   2.6162
  2.818   2.5956
  2.817   2.5544
  2.815   2.6368
  2.814   2.5441
  2.812   2.6986
  2.811   2.9561
  2.809   3.1209
  2.808   3.0385
  2.806   2.9561
  2.805   2.6265
  2.803   2.6471
  2.802   2.7192
  2.800   2.7398
  2.799   2.9664
  2.797   3.1312
  2.796   3.0694
  2.794   3.0900
  2.793   3.0797
  2.791   3.1827
  2.790   3.2857
  2.788   3.1724
  2.787   3.2136
  2.785   3.5535
  2.784   3.4402
  2.782   3.2548
  2.781   3.1724
  2.779   3.4917
  2.778   3.6668
  2.776   3.6874
  2.775   3.6771
  2.773   3.8007
  2.772   3.9449
  2.770   4.0067
  2.769   3.8831
  2.767   3.9655
  2.766   4.1818
  2.764   4.0170
  2.763   3.9552
  2.761   4.0273
  2.760   3.9037
  2.758   3.9655
  2.757   4.1715
  2.756   4.3569
  2.754   4.3157
  2.753   4.5526
  2.751   4.7895
  2.750   4.9440
  2.748   5.0882
  2.747   5.0779
  2.745   4.9852
  2.744   5.2221
  2.742   5.4590
  2.741   5.6135
  2.740   5.7680
  2.738   5.7371
  2.737   5.8195
  2.735   5.9740
  2.734   5.9740
  2.732   6.3036
  2.731   6.5405
  2.729   6.7980
  2.728   6.9731
  2.727   7.1791
  2.725   7.1276
  2.724   7.3645
  2.722   7.6941
  2.721   7.9619
  2.719   8.0443
  2.718   8.4975
  2.717   8.5387
  2.715   8.5387
  2.714   8.5593
  2.712   8.5387
  2.711   8.3121
  2.709   8.0134
  2.708   8.0340
  2.707   7.9310
  2.705   7.8589
  2.704   8.1576
  2.702   8.3636
  2.701   8.7344
  2.700   9.1773
  2.698   9.7953
  2.697  10.3206
  2.695  10.9077
  2.694  11.4742
  2.693  12.1231
  2.691  12.6690
  2.690  13.2767
  2.688  13.9977
  2.687  14.8217
  2.686  15.2028
  2.684  15.3573
  2.683  15.8208
  2.681  16.2843
  2.680  16.6139
  2.679  16.8714
  2.677  16.9744
  2.676  17.3658
  2.675  17.7572
  2.673  18.0559
  2.672  18.0250
  2.670  18.1692
  2.669  18.2104
  2.668  18.3443
  2.666  18.4267
  2.665  18.7769
  2.664  19.0756
  2.662  19.2713
  2.661  19.3949
  2.659  19.5391
  2.658  19.5803
  2.657  19.9717
  2.655  20.0644
  2.654  20.0129
  2.653  20.0026
  2.651  20.1880
  2.650  20.3631
  2.649  20.6721
  2.647  20.5382
  2.646  20.3837
  2.645  20.2498
  2.643  20.6000
  2.642  20.8884
  2.640  20.9296
  2.639  20.9605
  2.638  21.1974
  2.636  21.2592
  2.635  21.0635
  2.634  20.7545
  2.632  20.9296
  2.631  21.1562
  2.630  21.0841
  2.628  21.3622
  2.627  21.8154
  2.626  21.7124
  2.624  21.4858
  2.623  21.5167
  2.622  21.6197
  2.620  21.4137
  2.619  21.4652
  2.618  21.3622
  2.617  21.6094
  2.615  22.0008
  2.614  21.9699
  2.613  21.9699
  2.611  22.0214
  2.610  21.8669
  2.609  21.8669
  2.607  21.7433
  2.606  21.9699
  2.605  21.9287
  2.603  21.8978
  2.602  21.7845
  2.601  21.8566
  2.599  21.8669
  2.598  21.7948
  2.597  21.8875
  2.596  22.1347
  2.594  22.2171
  2.593  22.1141
  2.592  22.0729
  2.590  22.2377
  2.589  22.1965
  2.588  22.2789
  2.586  22.1656
  2.585  21.7227
  2.584  21.8360
  2.583  22.1656
  2.581  21.9390
  2.580  22.1862
  2.579  22.5364
  2.577  22.4540
  2.576  22.2686
  2.575  22.2480
  2.574  22.1244
  2.572  22.0317
  2.571  21.8875
  2.570  21.8360
  2.569  21.8051
  2.567  21.8257
  2.566  21.9905
  2.565  22.1450
  2.563  21.8669
  2.562  21.7330
  2.561  21.9596
  2.560  22.1656
  2.558  22.0935
  2.557  22.0832
  2.556  22.0214
  2.555  22.0111
  2.553  21.7639
  2.552  21.7227
  2.551  21.7742
  2.550  21.8669
  2.548  21.7330
  2.547  21.6403
  2.546  21.7742
  2.545  21.7948
  2.543  21.6815
  2.542  21.8051
  2.541  21.7330
  2.540  21.6609
  2.538  21.6815
  2.537  21.4652
  2.536  21.5064
  2.535  21.9699
  2.533  21.9287
  2.532  21.6094
  2.531  21.3931
  2.530  21.5373
  2.528  21.7021
  2.527  21.7124
  2.526  21.5579
  2.525  21.4137
  2.524  21.4961
  2.522  21.8257
  2.521  21.8875
  2.520  21.6506
  2.519  21.7330
  2.517  22.0111
  2.516  21.7330
  2.515  21.4137
  2.514  21.5991
  2.513  22.0111
  2.511  21.9390
  2.510  21.7948
  2.509  21.8360
  2.508  22.0420
  2.506  21.9081
  2.505  21.8463
  2.504  22.1347
  2.503  22.2892
  2.502  22.0214
  2.500  21.8978
  2.497  21.8978
  2.493  22.0978
  2.489  22.0978
  2.485  22.1978
  2.481  22.2978
  2.477  22.2978
  2.473  22.3978
  2.469  22.6978
  2.465  22.9978
  2.461  22.9978
  2.457  23.2978
  2.453  23.5978
  2.449  23.9978
  2.445  24.2978
  2.441  24.5978
  2.437  24.8978
  2.433  25.0978
  2.429  25.3978
  2.425  25.7978
  2.421  26.1978
  2.417  26.1978
  2.413  26.2978
  2.409  26.4978
  2.405  26.5978
  2.401  26.8978
  2.397  27.1978
  2.393  27.0978
  2.389  26.6978
  2.385  26.6978
  2.381  26.2978
  2.377  26.1978
  2.373  25.4978
  2.369  24.9978
  2.365  24.3978
  2.361  23.5978
  2.357  22.9978
  2.353  22.3978
  2.349  21.8978
  2.345  21.6978
  2.341  21.2978
  2.337  21.0978
  2.333  21.0978
  2.329  21.2978
  2.325  21.6978
  2.321  21.8978
  2.317  22.2978
  2.313  22.4978
  2.309  23.1978
  2.305  23.5978
  2.301  25.0978
  2.297  24.8978
  2.293  24.9978
  2.289  25.6978
  2.285  26.2978
  2.281  27.3978
  2.277  28.1978
  2.273  28.4978
  2.269  28.4978
  2.265  28.6978
  2.261  28.7978
  2.257  28.6978
  2.253  28.8978
  2.249  29.0978
  2.245  29.5978
  2.241  29.9978
  2.237  30.0978
  2.233  30.5978
  2.229  30.8978
  2.225  31.0978
  2.221  31.4978
  2.217  31.6978
  2.213  31.7978
  2.209  31.7978
  2.205  32.0978
  2.201  32.2978
  2.197  32.3978
  2.193  32.7978
  2.189  33.0978
  2.185  33.4978
  2.181  33.7978
  2.177  34.0978
  2.173  34.3978
  2.169  34.7978
  2.165  34.8978
  2.161  35.1978
  2.157  35.4978
  2.153  35.9978
  2.149  36.0978
  2.145  36.0978
  2.141  36.5978
  2.137  37.0978
  2.133  37.0978
  2.129  37.0978
  2.125  37.0978
  2.121  37.3978
  2.117  37.8978
  2.113  37.8978
  2.109  38.2978
  2.105  38.4978
  2.101  38.3978
  2.097  38.6978
  2.093  38.3978
  2.089  38.7978
  2.085  38.7978
  2.081  38.6978
  2.077  38.6978
  2.073  38.4978
  2.069  38.3978
  2.065  38.2978
  2.061  38.2978
  2.057  38.2978
  2.053  38.3978
  2.049  38.6978
  2.045  38.4978
  2.041  38.4978
  2.037  38.3978
  2.033  38.3978
  2.029  38.1978
  2.025  38.0978
  2.021  37.8978
  2.017  37.7978
  2.013  37.6978
  2.009  37.5978
  2.005  37.3978
  2.001  37.1978
  1.997  36.5978
  1.993  36.0978
  1.989  36.0978
  1.985  35.6978
  1.981  35.6978
  1.977  35.4978
  1.973  35.0978
  1.969  34.9978
  1.965  34.8978
  1.961  34.5978
  1.957  34.2978
  1.953  33.9978
  1.949  33.6978
  1.945  33.2978
  1.941  33.0978
  1.937  33.1978
  1.933  33.2978
  1.929  33.2978
  1.925  32.8978
  1.921  32.6978
  1.917  32.5978
  1.913  32.7978
  1.909  33.2978
  1.905  33.9978
  1.901  34.3978
  1.897  35.1978
  1.893  36.4978
  1.889  37.7978
  1.885  38.3978
  1.881  39.4978
  1.877  40.4978
  1.873  40.9978
  1.869  40.6978
  1.865  40.5978
  1.861  40.9978
  1.857  41.6978
  1.853  42.1978
  1.849  42.4978
  1.845  42.5978
  1.841  42.5978
  1.837  42.6978
  1.833  42.4978
  1.829  42.1978
  1.825  42.2978
  1.821  42.5978
  1.817  42.6978
  1.813  42.2978
  1.809  42.2978
  1.805  42.6978
  1.801  42.4978
  1.797  42.5978
  1.793  42.7978
  1.789  42.8978
  1.785  42.8978
  1.781  42.6978
  1.777  42.7978
  1.773  42.7978
  1.769  42.6978
  1.765  42.7978
  1.761  42.7978
  1.757  42.7978
  1.753  42.4978
  1.749  42.2978
  1.745  42.4978
  1.741  42.6978
  1.737  42.7978
  1.733  43.0978
  1.729  43.1978
  1.725  43.0978
  1.721  42.5978
  1.717  42.5978
  1.713  42.5978
  1.709  42.5978
  1.705  42.6978
  1.701  42.8978
  1.697  42.7978
  1.693  42.6978
  1.689  42.5978
  1.685  42.6978
  1.681  42.5978
  1.677  42.5978
  1.673  42.8978
  1.669  42.7978
  1.665  42.5978
  1.661  42.5978
  1.657  42.6978
  1.653  42.4978
  1.649  42.6978
  1.645  42.2978
  1.641  42.4978
  1.637  42.0978
  1.633  42.0978
  1.629  42.2978
  1.625  42.2978
  1.621  42.0978
  1.617  41.7978
  1.613  41.9978
  1.609  42.0978
  1.605  42.1978
  1.601  42.1978
  1.597  42.0978
  1.593  42.0978
  1.589  41.5978
  1.585  41.1978
  1.581  40.9978
  1.577  40.5978
  1.573  40.5978
  1.569  40.4978
  1.565  40.4978
  1.561  40.5978
  1.557  40.4978
  1.553  40.2978
  1.549  39.9978
  1.545  39.8978
  1.541  39.7978
  1.537  39.8978
  1.533  40.0978
  1.529  40.4978
  1.525  40.3978
  1.521  40.4978
  1.517  40.0978
  1.513  40.0978
  1.509  39.9978
  1.505  39.5978
  1.501  39.1978
  1.497  39.3978
  1.493  39.3978
  1.489  39.2978
  1.485  39.1978
  1.481  38.9978
  1.477  38.6978
  1.473  38.2978
  1.469  38.2978
  1.465  38.0978
  1.461  37.6978
  1.457  37.6978
  1.453  37.6978
  1.449  37.7978
  1.445  37.5978
  1.441  37.3978
  1.437  37.2978
  1.433  37.1978
  1.429  37.0978
  1.425  36.6978
  1.421  36.4978
  1.417  36.0978
  1.413  35.3978
  1.409  34.8978
  1.405  34.9978
  1.401  34.9978
  1.397  35.4978
  1.393  35.8978
  1.389  35.5978
  1.385  36.2978
  1.381  36.6978
  1.377  36.2978
  1.373  37.1978
  1.369  38.0978
  1.365  37.6978
  1.361  36.7978
  1.357  36.5978
  1.353  37.1978
  1.349  37.1978
  1.345  37.1978
  1.341  37.2978
  1.337  37.6978
  1.333  37.2978
  1.329  36.9978
  1.325  36.6978
  1.321  36.4978
  1.317  36.2978
  1.313  35.9978
  1.309  35.9978
  1.305  35.8978
  1.301  35.6978
  1.297  35.5978
  1.293  35.1978
  1.289  35.0978
  1.285  34.8978
  1.281  34.4978
  1.277  34.3978
  1.273  34.0978
  1.269  33.8978
  1.265  34.0978
  1.261  34.3978
  1.257  34.2978
  1.253  33.8978
  1.249  33.4978
  1.245  33.1978
  1.241  32.7978
  1.237  32.6978
  1.233  32.6978
  1.229  32.3978
  1.225  32.3978
  1.221  32.2978
  1.217  32.0978
  1.213  31.6978
  1.209  31.4978
  1.205  31.1978
  1.201  30.9978
  1.197  30.8978
  1.193  30.5978
  1.189  30.4978
  1.185  30.3978
  1.181  30.1978
  1.177  30.0978
  1.173  29.9978
  1.169  29.8978
  1.165  29.5978
  1.161  29.4978
  1.157  29.2978
  1.153  29.2978
  1.149  29.0978
  1.145  28.8978
  1.141  28.8978
  1.137  28.8978
  1.133  28.4978
  1.129  28.2978
  1.125  27.6978
  1.121  27.7978
  1.117  27.7978
  1.113  27.6978
  1.109  27.5978
  1.105  27.5978
  1.101  27.3978
  1.097  27.2978
  1.093  27.0978
  1.089  26.4978
  1.085  25.7978
  1.081  26.5978
  1.077  26.8978
  1.073  26.8978
  1.069  26.6978
  1.065  26.2978
  1.061  25.9978
  1.057  25.9978
  1.053  25.9978
  1.049  25.9978
  1.045  25.6978
  1.041  25.6978
  1.037  25.4978
  1.033  25.4978
  1.029  25.3978
  1.025  25.0978
  1.021  25.3978
  1.017  25.5978
  1.013  25.1978
  1.009  25.1978
  1.005  25.0978
  1.001  24.9978
  0.997  24.6978
  0.993  24.9978
  0.989  24.9978
  0.985  24.6978
  0.981  24.4978
  0.977  24.4978
  0.973  24.0978
  0.969  24.0978
  0.965  24.0978
  0.961  24.0978
  0.957  23.8978
  0.953  23.8978
  0.949  23.7978
  0.945  23.7978
  0.941  23.5978
  0.937  23.3978
  0.933  23.2978
  0.929  22.9978
  0.925  22.8978
  0.921  22.6978
  0.917  22.6978
  0.913  22.6978
  0.909  22.3978
  0.905  22.0978
  0.901  22.0978
  0.897  21.7978
  0.893  21.6978
  0.889  21.5978
  0.885  21.2978
  0.881  21.1978
  0.877  21.1978
  0.873  20.7978
  0.869  20.7978
  0.865  20.5978
  0.861  20.5978
  0.857  20.4978
  0.853  20.4978
  0.849  20.3978
  0.845  20.1978
  0.841  20.0978
  0.837  20.1978
  0.833  20.1978
  0.829  20.1978
  0.825  20.3978
  0.821  20.3978
  0.817  20.3978
  0.813  20.1978
  0.809  20.5978
  0.805  20.3978
  0.804  23.1978
  0.803  20.6978
  0.802  20.3978
  0.801  20.2978
  0.800  20.3978
  0.799  20.1978
  0.798  20.1978
  0.797  20.1978
  0.796  20.2978
  0.795  20.3978
  0.794  20.6978
  0.793  20.4978
  0.792  20.6978
  0.791  20.7978
  0.790  20.8978
  0.789  20.6978
  0.788  20.7978
  0.787  20.7978
  0.786  20.6978
  0.785  20.9978
  0.784  20.8978
  0.783  20.8978
  0.782  20.9978
  0.781  20.7978
  0.780  20.9978
  0.779  20.9978
  0.778  20.9978
  0.777  20.9978
  0.776  21.0978
  0.775  21.2978
  0.774  21.2978
  0.773  21.0978
  0.772  21.2978
  0.771  21.0978
  0.770  21.0978
  0.769  21.0978
  0.768  20.8978
  0.767  21.0978
  0.766  21.2978
  0.765  21.2978
  0.764  21.3978
  0.763  21.3978
  0.762  20.9978
  0.761  21.2978
  0.760  21.3978
  0.759  21.5978
  0.758  21.2978
  0.757  21.3978
  0.756  21.3978
  0.755  21.2978
  0.754  21.4978
  0.753  21.7978
  0.752  21.8978
  0.751  21.4978
  0.750  21.2978
  0.749  20.9978
  0.748  21.0978
  0.747  21.2978
  0.746  21.4978
  0.745  21.0978
  0.744  21.4978
  0.743  21.4978
  0.742  21.2978
  0.741  21.4978
  0.740  21.5978
  0.739  21.3978
  0.738  21.2978
  0.737  21.4978
  0.736  21.2978
  0.735  21.4978
  0.734  21.2978
  0.733  20.9978
  0.732  20.8978
  0.731  21.0978
  0.730  21.0978
  0.729  20.8978
  0.728  20.8978
  0.727  20.9978
  0.726  20.7978
  0.725  20.8978
  0.724  20.7978
  0.723  20.9978
  0.722  20.8978
  0.721  20.7978
  0.720  20.4978
  0.719  20.7978
  0.718  20.9978
  0.717  20.7978
  0.716  20.6978
  0.715  20.3978
  0.714  20.4978
  0.713  20.7978
  0.712  20.6978
  0.711  20.2978
  0.710  20.1978
  0.709  19.8978
  0.708  19.5978
  0.707  20.1978
  0.706  19.7978
  0.705  19.7978
  0.704  19.8978
  0.703  19.5978
  0.702  19.3978
  0.701  19.7978
  0.700  19.6978
  0.699  19.7978
  0.698  19.6978
  0.697  19.5978
  0.696  19.6978
  0.695  19.7978
  0.694  19.8978
  0.693  19.6978
  0.692  19.2978
  0.691  19.2978
  0.690  19.0978
  0.689  19.0978
  0.688  19.0978
  0.687  19.0978
  0.686  19.0978
  0.685  19.1978
  0.684  19.1978
  0.683  18.9978
  0.682  18.7978
  0.681  18.6978
  0.680  18.7978
  0.679  18.9978
  0.678  19.0978
  0.677  19.2978
  0.676  18.9978
  0.675  18.7978
  0.674  18.7978
  0.673  19.1978
  0.672  18.9978
  0.671  18.9978
  0.670  18.9978
  0.669  18.7978
  0.668  18.9978
  0.667  18.7978
  0.666  18.9978
  0.665  18.7978
  0.664  18.7978
  0.663  18.7978
  0.662  18.6978
  0.661  18.6978
  0.660  18.5978
  0.659  18.5978
  0.658  18.4978
  0.657  18.5978
  0.656  18.5978
  0.655  18.6978
  0.654  18.5978
  0.653  18.5978
  0.652  18.5978
  0.651  18.5978
  0.650  18.2978
  0.649  18.5978
  0.648  18.5978
  0.647  18.2978
  0.646  18.4978
  0.645  18.4978
  0.644  18.2978
  0.643  18.4978
  0.642  18.2978
  0.641  18.2978
  0.640  18.2978
  0.639  18.1978
  0.638  18.0978
  0.637  18.2978
  0.636  18.0978
  0.635  18.1978
  0.634  18.1978
  0.633  17.8978
  0.632  17.9978
  0.631  17.9978
  0.630  17.9978
  0.629  17.5978
  0.628  17.5978
  0.627  17.6978
  0.626  17.6978
  0.625  17.8978
  0.624  17.9978
  0.623  17.8978
  0.622  17.8978
  0.621  17.6978
  0.620  17.5978
  0.619  17.6978
  0.618  17.5978
  0.617  17.4978
  0.616  17.1978
  0.615  17.4978
  0.614  17.4978
  0.613  17.3978
  0.612  17.1978
  0.611  17.0978
  0.610  17.0978
  0.609  17.0978
  0.608  16.9978
  0.607  16.7978
  0.606  16.5978
  0.605  16.4978
  0.604  16.5978
  0.603  16.5978
  0.602  16.2978
  0.601  16.4978
  0.600  16.0978
  0.599  16.3978
  0.598  16.0978
  0.597  15.6978
  0.596  15.4978
  0.595  15.4978
  0.594  15.6978
  0.593  15.4978
  0.592  15.1978
  0.591  14.9978
  0.590  15.1978
  0.589  14.8978
  0.588  14.9978
  0.587  14.5978
  0.586  14.6978
  0.585  14.6978
  0.584  14.6978
  0.583  14.2978
  0.582  14.1978
  0.581  13.8978
  0.580  13.8978
  0.579  13.6978
  0.578  13.5978
  0.577  13.2978
  0.576  13.2978
  0.575  13.4978
  0.574  13.1978
  0.573  13.0978
  0.572  12.7978
  0.571  12.6978
  0.570  12.4978
  0.569  12.3978
  0.568  12.0978
  0.567  11.8978
  0.566  11.6978
  0.565  11.4978
  0.564  11.3978
  0.563  10.4978
  0.562  10.4978
  0.561  10.4978
  0.560  10.3978
  0.559  10.2978
  0.558  10.1978
  0.557   9.7978
  0.556   9.4978
  0.555   9.3978
  0.554   9.2978
  0.553   8.8978
  0.552   8.2978
  0.551   8.7978
  0.550   8.5978
  0.549   8.4978
  0.548   8.0978
  0.547   7.9978
  0.546   8.0978
  0.545   7.9978
  0.544   8.0978
  0.543   7.3978
  0.542   7.4978
  0.541   7.3978
  0.540   7.3978
  0.539   7.0978
  0.538   6.9978
  0.537   6.4978
  0.536   6.6978
  0.535   6.4978
  0.534   6.3978
  0.533   6.0978
  0.532   6.0978
  0.531   5.9978
  0.530   5.7978
  0.529   5.5978
  0.528   5.7978
  0.527   5.5978
  0.526   5.2978
  0.525   5.4978
  0.524   5.2978
  0.523   5.2978
  0.522   4.8978
  0.521   4.8978
  0.520   4.6978
  0.519   4.7978
  0.518   4.7978
  0.517   4.6978
  0.516   4.2978
  0.515   4.2978
  0.514   4.0978
  0.513   3.8978
  0.512   3.7978
  0.511   3.7978
  0.510   3.7978
  0.509   3.5978
  0.508   3.3978
  0.507   3.3978
  0.506   3.2978
  0.505   3.1978
  0.504   2.9978
  0.503   2.7978
  0.502   2.9978
  0.501   2.7978
  0.500   2.7978
  0.499   2.4978
  0.498   2.2978
  0.497   2.2978
  0.496   2.2978
  0.495   2.0978
  0.494   2.0978
  0.493   2.1978
  0.492   1.9978
  0.491   1.6978
  0.490   1.4978
  0.489   1.4978
  0.488   1.4978
  0.487   1.5978
  0.486   1.4978
  0.485   1.4978
  0.484   1.3978
  0.483   1.3978
  0.482   1.0978
  0.481   1.0978
  0.480   1.0978
  0.479   0.9978
  0.478   1.1978
  0.477   0.8978
  0.476   1.0978
  0.475   0.7978
  0.474   0.5978
  0.473   0.8978
  0.472   0.8978
  0.471   0.8978
  0.470   0.7978
  0.469   0.7978
  0.468   0.8978
  0.467   0.5978
  0.466   0.4978
  0.465   0.3978
  0.464   0.0978
  0.463   1.6978
  0.462   1.4978
  0.461   1.4978
  0.460   1.4978
  0.459   1.5978
  0.458   1.4978
  0.457   1.1978
  0.456   1.0978
  0.455   0.9978
  0.454   1.0978
  0.453   1.1978
  0.452   1.0978
  0.451   1.0978
  0.450   0.8978
  0.449   0.8978
  0.448   0.7978
  0.447   0.4978
  0.446   0.5978
  0.445   0.5978
  0.444   0.3978
  0.443   0.2978
  0.442   0.0978
  0.441   0.0978
  0.440   0.2978
  0.439  -0.1022
  0.438  -0.1022
  0.437  -0.0022
  0.436  -0.1022
  0.435  -0.1022
  0.434  -0.5022
  0.433  -0.6022
  0.432  -0.5022
  0.431  -0.7022
  0.430  -0.7022
  0.429  -0.6022
  0.428  -0.6022
  0.427  -0.6022
  0.426  -1.0022
  0.425  -1.0022
  0.424  -0.8022
  0.423  -1.1022
  0.422  -1.1022
  0.421  -1.1022
  0.420  -1.3022
  0.419  -1.2022
  0.418  -1.3022
  0.417  -1.4022
  0.416  -1.4022
  0.415  -1.6022
  0.414  -1.6022
  0.413  -1.7022
  0.412  -1.7022
  0.411  -1.7022
  0.410  -1.9022
  0.409  -1.9022
  0.408  -1.9022
  0.407  -1.8022
  0.406  -2.1022
  0.405  -2.2022
