Name: White kaolinitic sandstone
Type:  Rocks
Class: Sedimentary
Subclass: Arenaceous
Particle Size:  see additional information
Sample No.: fge1
Owner:  University of NSW
Wavelength range:  All
Origin: Nundooka Sandstone, Fowlers Gap, western New South Wales, Australia
Hewson(1998) PhD thesis 
Description: Fine to medium grained sandstone with kaolinitic matrix
with calcrete coating
Physiography: Forms hillsides and resistant bluffs above broad floodplains



Measurement:  Directional hemispherical reflectance
First Column:  X
Second Column:  Y
X Units:  Wavelength (micrometers)
Y Units:  Reflectance (percent)
First X Value:  14.983
Last X Value:  2.0795
Number of X Values:  2148
Additional information:  fge1a.txt
	
14.9830	3.3243
14.9400	2.6454
14.8970	2.6707
14.8540	2.9713
14.8120	3.3704
14.7700	3.8364
14.7280	3.1746
14.6860	2.2463
14.6450	1.9122
14.6030	2.5128
14.5620	3.0647
14.5210	2.7348
14.4810	2.6394
14.4410	3.1336
14.4000	3.1812
14.3610	2.5810
14.3210	2.1282
14.2810	2.1901
14.2420	1.9621
14.2030	2.0213
14.1640	2.3394
14.1260	2.3295
14.0870	2.3772
14.0490	2.6445
14.0110	2.7340
13.9730	2.7077
13.9360	2.6246
13.8990	2.6196
13.8610	2.8732
13.8240	2.9689
13.7880	2.9443
13.7510	2.9804
13.7150	3.0173
13.6790	3.0612
13.6430	3.0803
13.6070	3.0845
13.5710	3.2227
13.5360	3.3270
13.5000	3.2872
13.4650	3.3052
13.4300	3.3080
13.3960	3.2765
13.3610	3.3032
13.3270	3.4032
13.2930	3.4964
13.2590	3.5623
13.2250	3.6356
13.1910	3.7009
13.1580	3.7405
13.1240	3.8674
13.0910	4.0599
13.0580	4.1629
13.0260	4.4019
12.9930	4.7058
12.9600	5.0229
12.9280	5.3936
12.8960	5.9006
12.8640	6.3410
12.8320	6.5979
12.8000	6.6686
12.7690	6.4521
12.7370	5.9004
12.7060	5.2267
12.6750	4.7069
12.6440	4.5297
12.6140	4.6388
12.5830	4.9180
12.5520	5.2700
12.5220	5.4790
12.4920	5.4082
12.4620	5.0911
12.4320	4.6102
12.4020	3.7185
12.3730	2.6066
12.3430	1.8390
12.3140	1.4834
12.2850	1.4043
12.2560	1.4437
12.2270	1.4841
12.1980	1.6108
12.1690	1.7943
12.1410	1.8798
12.1130	1.9505
12.0840	2.0967
12.0560	2.1600
12.0280	2.2131
12.0000	2.3134
11.9730	2.4231
11.9450	2.4610
11.9180	2.5051
11.8900	2.6266
11.8630	2.6811
11.8360	2.7122
11.8090	2.7295
11.7820	2.7394
11.7550	2.8238
11.7290	2.8795
11.7020	2.9738
11.6760	3.0508
11.6500	3.0968
11.6240	3.1137
11.5980	3.1107
11.5720	3.1512
11.5460	3.2142
11.5200	3.2401
11.4950	3.2602
11.4690	3.2761
11.4440	3.2869
11.4190	3.2968
11.3940	3.3463
11.3690	3.3872
11.3440	3.4612
11.3190	3.5208
11.2940	3.5964
11.2700	3.6317
11.2450	3.6414
11.2210	3.6649
11.1970	3.7102
11.1730	3.7393
11.1490	3.7936
11.1250	3.8766
11.1010	3.9795
11.0770	4.0372
11.0540	4.1209
11.0300	4.2070
11.0070	4.2726
10.9830	4.3558
10.9600	4.3698
10.9370	4.3655
10.9140	4.3925
10.8910	4.3240
10.8680	4.2374
10.8460	4.2139
10.8230	4.1661
10.8000	4.1422
10.7780	4.1301
10.7550	4.0997
10.7330	4.0995
10.7110	4.1290
10.6890	4.1434
10.6670	4.2058
10.6450	4.2613
10.6230	4.2753
10.6020	4.2698
10.5800	4.2661
10.5580	4.2939
10.5370	4.3133
10.5160	4.3523
10.4940	4.4379
10.4730	4.4917
10.4520	4.5209
10.4310	4.6225
10.4100	4.7389
10.3890	4.8054
10.3680	4.8615
10.3480	4.9865
10.3270	5.1212
10.3060	5.1987
10.2860	5.2155
10.2660	5.3187
10.2450	5.4723
10.2250	5.6032
10.2050	5.7186
10.1850	5.8783
10.1650	6.0612
10.1450	6.1992
10.1250	6.3057
10.1060	6.4295
10.0860	6.5804
10.0660	6.7630
10.0470	6.9717
10.0270	7.2173
10.0080	7.4737
9.9887	7.7857
9.9695	8.1226
9.9504	8.4377
9.9313	8.6503
9.9123	8.7511
9.8934	8.7984
9.8746	8.8164
9.8558	8.7966
9.8371	8.7825
9.8185	8.8612
9.7999	9.0208
9.7814	9.1708
9.7630	9.4651
9.7447	9.8667
9.7264	10.3610
9.7082	10.8280
9.6900	11.1970
9.6719	11.5540
9.6539	11.8370
9.6360	12.0350
9.6181	12.2010
9.6003	12.3940
9.5825	12.5970
9.5649	12.8530
9.5472	13.1520
9.5297	13.4590
9.5122	13.8270
9.4948	14.2320
9.4774	14.7190
9.4601	15.2830
9.4429	15.9750
9.4257	16.8710
9.4086	17.9080
9.3916	19.0360
9.3746	20.2660
9.3577	21.3790
9.3408	22.3790
9.3240	23.2620
9.3073	23.8690
9.2906	24.1940
9.2740	24.3370
9.2574	24.3370
9.2409	24.2780
9.2245	24.1990
9.2081	24.0890
9.1918	23.8950
9.1755	23.6910
9.1593	23.5050
9.1431	23.2610
9.1270	22.9830
9.1110	22.6950
9.0950	22.4090
9.0791	22.0030
9.0632	21.5820
9.0474	21.1950
9.0316	20.6990
9.0159	20.0950
9.0003	19.6060
8.9847	19.3850
8.9691	19.4570
8.9536	19.7560
8.9382	20.1250
8.9228	20.4590
8.9075	20.6540
8.8922	20.7700
8.8770	20.7950
8.8618	20.7840
8.8467	20.7160
8.8316	20.5630
8.8166	20.3960
8.8016	20.2150
8.7867	20.0590
8.7718	19.8960
8.7570	19.7270
8.7422	19.5690
8.7275	19.3940
8.7129	19.1830
8.6982	18.8540
8.6837	18.3810
8.6692	17.6480
8.6547	16.5370
8.6403	15.3470
8.6259	14.9270
8.6116	15.6820
8.5973	16.9570
8.5830	18.0510
8.5688	18.8900
8.5547	19.5210
8.5406	19.9980
8.5266	20.3660
8.5126	20.6590
8.4986	20.8970
8.4847	21.0950
8.4708	21.2920
8.4570	21.4470
8.4432	21.5540
8.4295	21.6630
8.4158	21.8830
8.4022	22.1110
8.3886	22.3400
8.3750	22.6160
8.3615	22.8400
8.3481	23.0900
8.3347	23.4300
8.3213	23.7690
8.3079	24.0750
8.2946	24.3680
8.2814	24.6410
8.2682	24.8720
8.2550	25.1410
8.2419	25.3730
8.2288	25.4830
8.2158	25.5150
8.2028	25.4150
8.1898	25.1990
8.1769	24.8090
8.1640	24.2020
8.1512	23.3710
8.1384	22.3390
8.1256	21.1640
8.1129	19.9730
8.1002	18.7890
8.0876	17.6610
8.0750	16.5690
8.0624	15.5100
8.0499	14.5270
8.0374	13.6360
8.0250	12.8130
8.0126	12.0240
8.0002	11.2900
7.9879	10.5910
7.9756	9.9049
7.9634	9.1777
7.9512	8.4705
7.9390	7.8139
7.9268	7.2064
7.9147	6.6535
7.9027	6.1448
7.8906	5.6570
7.8786	5.2324
7.8667	4.8864
7.8548	4.5672
7.8429	4.2607
7.8310	4.0113
7.8192	3.8256
7.8075	3.6399
7.7957	3.5151
7.7840	3.4039
7.7723	3.2750
7.7607	3.1433
7.7491	3.0213
7.7375	2.9105
7.7260	2.7976
7.7145	2.6632
7.7031	2.5739
7.6916	2.5001
7.6802	2.4011
7.6689	2.3167
7.6575	2.2163
7.6462	2.1392
7.6350	2.0704
7.6238	1.9929
7.6126	1.8997
7.6014	1.8630
7.5903	1.8655
7.5792	1.8069
7.5681	1.7607
7.5571	1.7775
7.5461	1.7636
7.5351	1.7385
7.5242	1.7377
7.5133	1.7014
7.5024	1.6558
7.4916	1.6526
7.4807	1.6360
7.4700	1.6142
7.4592	1.6088
7.4485	1.5925
7.4378	1.5743
7.4272	1.5636
7.4165	1.5772
7.4059	1.6030
7.3954	1.5570
7.3848	1.5403
7.3743	1.5581
7.3639	1.5618
7.3534	1.5377
7.3430	1.5027
7.3326	1.4901
7.3223	1.4990
7.3119	1.4836
7.3016	1.4687
7.2914	1.4740
7.2811	1.4825
7.2709	1.4802
7.2607	1.4637
7.2506	1.4627
7.2404	1.4703
7.2303	1.4833
7.2203	1.4897
7.2102	1.4564
7.2002	1.4218
7.1902	1.4064
7.1803	1.3842
7.1703	1.3643
7.1604	1.3550
7.1506	1.3464
7.1407	1.3349
7.1309	1.3220
7.1211	1.3186
7.1113	1.3268
7.1016	1.3503
7.0919	1.3490
7.0822	1.3026
7.0725	1.2910
7.0629	1.2844
7.0533	1.2771
7.0437	1.2796
7.0341	1.2521
7.0246	1.2187
7.0151	1.2084
7.0056	1.2355
6.9962	1.2618
6.9867	1.2487
6.9773	1.2146
6.9679	1.2047
6.9586	1.2448
6.9493	1.2493
6.9400	1.2164
6.9307	1.2247
6.9214	1.2555
6.9122	1.2621
6.9030	1.2688
6.8938	1.2675
6.8847	1.2486
6.8755	1.2195
6.8664	1.1934
6.8573	1.1856
6.8483	1.1838
6.8393	1.1817
6.8302	1.1965
6.8213	1.2140
6.8123	1.2056
6.8034	1.2344
6.7944	1.2630
6.7855	1.2533
6.7767	1.2473
6.7678	1.2291
6.7590	1.2361
6.7502	1.2689
6.7414	1.2640
6.7327	1.2395
6.7239	1.2481
6.7152	1.2695
6.7065	1.2463
6.6979	1.2326
6.6892	1.2678
6.6806	1.2931
6.6720	1.2713
6.6634	1.2828
6.6549	1.3384
6.6464	1.3435
6.6378	1.3316
6.6294	1.3545
6.6209	1.3540
6.6124	1.3613
6.6040	1.3945
6.5956	1.3976
6.5872	1.3739
6.5789	1.3537
6.5705	1.3635
6.5622	1.3663
6.5539	1.3742
6.5456	1.3764
6.5374	1.3764
6.5292	1.4044
6.5209	1.4697
6.5128	1.5152
6.5046	1.5821
6.4964	1.6483
6.4883	1.6852
6.4802	1.7292
6.4721	1.7797
6.4640	1.8334
6.4560	1.8833
6.4480	1.8965
6.4399	1.9330
6.4320	1.9442
6.4240	1.9410
6.4160	1.9616
6.4081	1.9171
6.4002	1.8643
6.3923	1.8563
6.3844	1.8332
6.3766	1.7486
6.3687	1.6890
6.3609	1.6880
6.3531	1.6774
6.3454	1.6659
6.3376	1.5958
6.3299	1.5510
6.3221	1.5314
6.3144	1.4914
6.3068	1.4545
6.2991	1.4371
6.2914	1.4254
6.2838	1.4448
6.2762	1.4098
6.2686	1.3526
6.2611	1.3254
6.2535	1.3323
6.2460	1.3365
6.2385	1.3123
6.2310	1.3215
6.2235	1.3192
6.2160	1.2880
6.2086	1.2940
6.2011	1.2799
6.1937	1.2896
6.1863	1.3098
6.1790	1.2824
6.1716	1.2782
6.1643	1.3146
6.1570	1.3619
6.1496	1.3608
6.1424	1.3695
6.1351	1.4034
6.1278	1.4533
6.1206	1.4638
6.1134	1.4463
6.1062	1.4678
6.0990	1.4961
6.0918	1.5177
6.0847	1.5513
6.0776	1.5418
6.0704	1.5443
6.0633	1.5813
6.0563	1.6157
6.0492	1.6062
6.0421	1.5531
6.0351	1.5625
6.0281	1.6073
6.0211	1.5990
6.0141	1.5800
6.0071	1.6087
6.0002	1.6148
5.9932	1.6114
5.9863	1.6024
5.9794	1.6212
5.9725	1.6230
5.9657	1.5807
5.9588	1.5789
5.9520	1.5567
5.9451	1.5434
5.9383	1.5697
5.9315	1.5678
5.9247	1.5967
5.9180	1.6470
5.9112	1.6966
5.9045	1.7400
5.8978	1.7519
5.8911	1.8098
5.8844	1.8683
5.8777	1.9388
5.8711	1.9880
5.8644	2.0189
5.8578	2.0909
5.8512	2.1903
5.8446	2.2479
5.8380	2.3082
5.8314	2.3811
5.8249	2.4245
5.8184	2.4750
5.8118	2.5483
5.8053	2.5808
5.7988	2.6498
5.7923	2.7246
5.7859	2.7791
5.7794	2.8378
5.7730	2.8761
5.7666	2.9146
5.7602	2.9882
5.7538	3.0428
5.7474	3.0905
5.7410	3.1407
5.7347	3.1860
5.7283	3.2482
5.7220	3.2926
5.7157	3.2999
5.7094	3.2968
5.7031	3.2897
5.6969	3.2992
5.6906	3.2819
5.6844	3.2197
5.6782	3.1124
5.6719	3.0241
5.6657	2.9162
5.6596	2.7989
5.6534	2.6965
5.6472	2.5691
5.6411	2.4685
5.6349	2.4105
5.6288	2.3347
5.6227	2.2651
5.6166	2.2328
5.6106	2.2092
5.6045	2.1809
5.5984	2.1590
5.5924	2.1400
5.5864	2.1296
5.5804	2.1167
5.5744	2.0993
5.5684	2.1220
5.5624	2.1222
5.5564	2.1326
5.5505	2.1614
5.5445	2.2022
5.5386	2.2373
5.5327	2.2891
5.5268	2.3376
5.5209	2.3880
5.5151	2.4291
5.5092	2.4597
5.5033	2.5042
5.4975	2.5525
5.4917	2.6054
5.4859	2.6816
5.4801	2.7408
5.4743	2.7933
5.4685	2.8466
5.4628	2.8697
5.4570	2.8901
5.4513	2.9315
5.4455	2.9248
5.4398	2.8674
5.4341	2.8051
5.4284	2.7460
5.4228	2.6761
5.4171	2.6040
5.4114	2.5292
5.4058	2.4292
5.4002	2.3264
5.3945	2.2227
5.3889	2.1496
5.3833	2.1180
5.3778	2.0861
5.3722	2.0307
5.3666	2.0105
5.3611	1.9803
5.3555	1.9530
5.3500	1.9656
5.3445	1.9878
5.3390	1.9728
5.3335	1.9782
5.3280	1.9955
5.3225	2.0049
5.3171	2.0090
5.3116	2.0223
5.3062	2.0556
5.3008	2.0702
5.2954	2.0943
5.2900	2.1197
5.2846	2.1401
5.2792	2.1426
5.2738	2.1501
5.2684	2.2115
5.2631	2.2752
5.2578	2.3025
5.2524	2.3617
5.2471	2.4238
5.2418	2.4888
5.2365	2.5945
5.2312	2.7137
5.2260	2.8068
5.2207	2.8682
5.2154	2.9494
5.2102	3.0782
5.2050	3.1544
5.1998	3.1716
5.1945	3.1628
5.1893	3.1622
5.1842	3.2013
5.1790	3.2074
5.1738	3.1860
5.1686	3.1489
5.1635	3.1398
5.1584	3.1640
5.1532	3.1740
5.1481	3.1484
5.1430	3.1340
5.1379	3.1269
5.1328	3.1299
5.1277	3.1326
5.1227	3.1210
5.1176	3.1264
5.1126	3.1495
5.1075	3.1597
5.1025	3.1152
5.0975	3.0493
5.0925	3.0221
5.0875	3.0106
5.0825	2.9844
5.0775	2.9501
5.0726	2.9128
5.0676	2.9215
5.0627	2.9315
5.0577	2.9292
5.0528	2.9309
5.0479	2.9328
5.0430	2.9280
5.0380	2.9192
5.0332	2.9240
5.0283	2.9327
5.0234	2.9199
5.0185	2.9357
5.0137	2.9492
5.0088	2.9436
5.0040	2.9544
4.9992	2.9866
4.9944	3.0191
4.9896	3.0740
4.9848	3.1174
4.9800	3.1614
4.9752	3.2484
4.9704	3.3928
4.9657	3.5388
4.9609	3.6530
4.9562	3.7745
4.9514	3.8847
4.9467	3.9897
4.9420	4.0754
4.9373	4.1489
4.9326	4.2131
4.9279	4.3191
4.9232	4.4846
4.9186	4.6971
4.9139	4.9589
4.9092	5.2779
4.9046	5.6833
4.9000	6.1777
4.8953	6.7073
4.8907	7.2304
4.8861	7.7874
4.8815	8.3820
4.8769	8.9163
4.8723	9.4176
4.8678	9.8957
4.8632	10.3610
4.8586	10.8010
4.8541	11.1870
4.8495	11.5460
4.8450	11.9090
4.8405	12.2740
4.8360	12.6030
4.8315	12.9090
4.8270	13.1950
4.8225	13.4750
4.8180	13.7360
4.8135	13.9980
4.8090	14.2850
4.8046	14.5420
4.8001	14.7830
4.7957	15.0250
4.7913	15.2570
4.7868	15.4840
4.7824	15.6940
4.7780	15.8940
4.7736	16.0960
4.7692	16.2960
4.7648	16.4780
4.7605	16.6320
4.7561	16.7830
4.7517	16.9290
4.7474	17.0640
4.7431	17.1730
4.7387	17.2390
4.7344	17.3120
4.7301	17.3660
4.7258	17.3660
4.7215	17.3380
4.7172	17.2770
4.7129	17.1440
4.7086	16.9390
4.7043	16.6440
4.7000	16.2710
4.6958	15.8370
4.6915	15.4150
4.6873	15.1060
4.6831	14.9590
4.6788	15.0140
4.6746	15.2450
4.6704	15.5860
4.6662	16.0020
4.6620	16.4560
4.6578	16.8840
4.6536	17.2840
4.6495	17.7000
4.6453	18.1100
4.6411	18.5270
4.6370	18.9590
4.6328	19.3730
4.6287	19.7470
4.6246	20.0650
4.6205	20.3390
4.6163	20.6220
4.6122	20.8590
4.6081	21.0710
4.6040	21.2540
4.6000	21.3900
4.5959	21.4980
4.5918	21.6250
4.5877	21.7260
4.5837	21.7960
4.5796	21.8460
4.5756	21.8680
4.5716	21.8530
4.5675	21.8110
4.5635	21.7570
4.5595	21.6530
4.5555	21.4710
4.5515	21.2150
4.5475	20.9370
4.5435	20.6310
4.5395	20.2530
4.5356	19.8220
4.5316	19.3630
4.5276	18.9160
4.5237	18.4370
4.5197	17.8960
4.5158	17.3040
4.5119	16.7190
4.5080	16.1380
4.5040	15.6120
4.5001	15.1760
4.4962	14.8320
4.4923	14.5970
4.4884	14.4420
4.4846	14.3020
4.4807	14.1840
4.4768	14.0600
4.4730	13.9400
4.4691	13.8960
4.4652	13.9300
4.4614	14.0480
4.4576	14.2620
4.4537	14.5290
4.4499	14.7950
4.4461	15.0200
4.4423	15.2030
4.4385	15.3530
4.4347	15.5110
4.4309	15.6990
4.4271	15.8920
4.4233	16.1110
4.4196	16.3570
4.4158	16.6090
4.4120	16.8500
4.4083	17.1250
4.4045	17.4120
4.4008	17.6930
4.3971	17.9970
4.3934	18.3290
4.3896	18.6980
4.3859	19.0640
4.3822	19.4360
4.3785	19.8190
4.3748	20.1890
4.3711	20.5450
4.3674	20.9200
4.3638	21.2760
4.3601	21.5920
4.3564	21.9030
4.3528	22.1930
4.3491	22.4300
4.3455	22.6640
4.3418	22.8590
4.3382	23.0100
4.3346	23.1600
4.3310	23.3010
4.3273	23.3690
4.3237	23.3830
4.3201	23.3840
4.3165	23.3660
4.3129	23.3300
4.3094	23.2660
4.3058	23.1930
4.3022	23.1270
4.2986	23.0770
4.2951	23.0360
4.2915	23.0340
4.2880	23.0550
4.2844	23.0870
4.2809	23.1490
4.2774	23.2050
4.2738	23.2870
4.2703	23.3880
4.2668	23.5280
4.2633	23.7460
4.2598	23.9790
4.2563	24.1550
4.2528	24.2850
4.2493	24.3590
4.2458	24.3610
4.2424	24.3570
4.2389	24.3380
4.2354	24.3350
4.2320	24.3620
4.2285	24.4080
4.2251	24.4580
4.2216	24.5220
4.2182	24.5550
4.2148	24.5980
4.2113	24.6640
4.2079	24.6610
4.2045	24.6280
4.2011	24.6380
4.1977	24.6630
4.1943	24.7180
4.1909	24.8080
4.1875	24.9300
4.1841	25.0380
4.1808	25.1820
4.1774	25.3430
4.1740	25.4790
4.1707	25.5980
4.1673	25.6840
4.1640	25.7810
4.1606	25.8920
4.1573	25.9900
4.1540	26.1110
4.1506	26.2140
4.1473	26.3250
4.1440	26.4330
4.1407	26.5300
4.1374	26.6530
4.1341	26.7700
4.1308	26.8560
4.1275	26.9880
4.1242	27.1250
4.1209	27.2220
4.1177	27.3270
4.1144	27.4600
4.1111	27.6070
4.1079	27.7250
4.1046	27.8330
4.1014	27.9630
4.0981	28.0950
4.0949	28.1960
4.0917	28.2930
4.0884	28.3860
4.0852	28.4570
4.0820	28.5020
4.0788	28.5280
4.0756	28.5620
4.0724	28.5830
4.0692	28.5890
4.0660	28.6080
4.0628	28.6000
4.0596	28.5670
4.0565	28.4790
4.0533	28.3600
4.0501	28.2260
4.0470	28.0580
4.0438	27.8770
4.0406	27.6600
4.0375	27.4070
4.0344	27.1700
4.0312	26.9070
4.0281	26.6190
4.0250	26.3320
4.0218	25.9970
4.0187	25.6530
4.0156	25.3130
4.0125	24.9560
4.0094	24.5250
4.0063	24.0750
4.0032	23.6340
4.0001	23.1460
3.9970	22.6740
3.9940	22.2370
3.9909	21.8210
3.9878	21.4910
3.9847	21.2830
3.9817	21.1820
3.9786	21.1650
3.9756	21.2250
3.9725	21.3360
3.9695	21.4850
3.9665	21.6470
3.9634	21.8920
3.9604	22.2520
3.9574	22.6200
3.9544	23.0090
3.9513	23.4600
3.9483	23.9940
3.9453	24.5130
3.9423	25.0030
3.9393	25.4760
3.9363	25.8350
3.9333	26.0460
3.9304	26.1720
3.9274	26.2880
3.9244	26.4010
3.9214	26.5250
3.9185	26.6330
3.9155	26.6870
3.9126	26.7070
3.9096	26.7250
3.9067	26.7400
3.9037	26.7450
3.9008	26.7370
3.8979	26.7010
3.8949	26.6700
3.8920	26.6640
3.8891	26.6290
3.8862	26.5800
3.8833	26.5310
3.8804	26.4980
3.8775	26.4710
3.8746	26.4100
3.8717	26.3670
3.8688	26.3260
3.8659	26.2980
3.8630	26.2780
3.8601	26.2670
3.8573	26.2700
3.8544	26.2520
3.8515	26.2430
3.8487	26.2590
3.8458	26.2760
3.8430	26.3320
3.8401	26.4110
3.8373	26.4980
3.8344	26.6060
3.8316	26.7240
3.8288	26.8610
3.8259	26.9980
3.8231	27.1300
3.8203	27.2630
3.8175	27.3530
3.8147	27.4190
3.8119	27.5370
3.8091	27.6160
3.8063	27.6610
3.8035	27.7350
3.8007	27.8120
3.7979	27.8640
3.7951	27.8920
3.7924	27.9070
3.7896	27.9130
3.7868	27.8480
3.7841	27.7920
3.7813	27.7480
3.7785	27.7170
3.7758	27.6410
3.7730	27.5080
3.7703	27.4360
3.7676	27.3770
3.7648	27.2810
3.7621	27.1820
3.7594	27.0730
3.7566	26.9730
3.7539	26.8720
3.7512	26.7830
3.7485	26.6890
3.7458	26.5560
3.7431	26.4910
3.7404	26.4800
3.7377	26.4550
3.7350	26.4380
3.7323	26.3830
3.7296	26.3610
3.7269	26.3400
3.7242	26.3000
3.7216	26.2760
3.7189	26.2770
3.7162	26.2810
3.7136	26.2460
3.7109	26.2020
3.7083	26.1810
3.7056	26.1570
3.7030	26.1510
3.7003	26.1690
3.6977	26.1580
3.6950	26.1380
3.6924	26.1930
3.6898	26.2120
3.6872	26.2150
3.6845	26.2530
3.6819	26.2890
3.6793	26.3370
3.6767	26.3870
3.6741	26.3820
3.6715	26.3620
3.6689	26.3550
3.6663	26.3640
3.6637	26.3670
3.6611	26.3530
3.6585	26.3320
3.6560	26.3110
3.6534	26.2330
3.6508	26.1980
3.6482	26.1930
3.6457	26.1160
3.6431	26.0530
3.6406	26.0030
3.6380	25.9180
3.6355	25.8670
3.6329	25.8000
3.6304	25.7330
3.6278	25.6840
3.6253	25.6270
3.6227	25.5260
3.6202	25.4460
3.6177	25.3950
3.6152	25.3280
3.6127	25.2680
3.6101	25.1610
3.6076	25.0550
3.6051	24.9900
3.6026	24.9430
3.6001	24.8250
3.5976	24.6960
3.5951	24.6260
3.5926	24.5700
3.5901	24.4880
3.5876	24.3700
3.5852	24.2850
3.5827	24.2170
3.5802	24.1090
3.5777	24.0220
3.5753	23.9520
3.5728	23.8540
3.5704	23.7540
3.5679	23.6590
3.5654	23.5880
3.5630	23.5020
3.5605	23.3960
3.5581	23.2570
3.5557	23.1660
3.5532	23.0850
3.5508	22.9400
3.5484	22.8050
3.5459	22.6910
3.5435	22.5440
3.5411	22.4180
3.5387	22.2590
3.5363	22.0730
3.5338	21.9240
3.5314	21.7420
3.5290	21.5010
3.5266	21.2530
3.5242	20.9810
3.5218	20.7260
3.5195	20.4590
3.5171	20.1290
3.5147	19.7740
3.5123	19.4160
3.5099	19.1160
3.5075	18.8790
3.5052	18.6710
3.5028	18.5100
3.5004	18.4430
3.4981	18.3790
3.4957	18.2670
3.4934	18.1670
3.4910	18.1220
3.4887	18.0640
3.4863	17.9430
3.4840	17.8510
3.4816	17.7210
3.4793	17.5640
3.4770	17.5280
3.4746	17.5460
3.4723	17.6150
3.4700	17.6740
3.4677	17.7180
3.4653	17.7430
3.4630	17.7790
3.4607	17.8070
3.4584	17.7790
3.4561	17.6910
3.4538	17.5990
3.4515	17.5080
3.4492	17.4030
3.4469	17.2870
3.4446	17.2090
3.4423	17.1300
3.4400	16.9970
3.4378	16.8790
3.4355	16.7330
3.4332	16.5560
3.4309	16.4010
3.4287	16.2100
3.4264	15.9850
3.4241	15.8060
3.4219	15.6910
3.4196	15.5560
3.4174	15.4380
3.4151	15.3960
3.4129	15.3330
3.4106	15.3140
3.4084	15.3490
3.4061	15.4310
3.4039	15.5090
3.4017	15.5610
3.3994	15.5920
3.3972	15.6080
3.3950	15.6030
3.3928	15.5880
3.3906	15.5710
3.3883	15.5580
3.3861	15.5340
3.3839	15.4530
3.3817	15.3800
3.3795	15.3930
3.3773	15.4420
3.3751	15.4980
3.3729	15.5210
3.3707	15.5090
3.3685	15.5150
3.3663	15.5280
3.3641	15.5510
3.3620	15.5360
3.3598	15.4890
3.3576	15.5260
3.3554	15.5090
3.3533	15.5070
3.3511	15.4860
3.3489	15.4760
3.3468	15.5320
3.3446	15.5720
3.3425	15.6300
3.3403	15.7130
3.3382	15.7490
3.3360	15.7780
3.3339	15.8060
3.3317	15.7990
3.3296	15.7570
3.3274	15.7190
3.3253	15.7160
3.3232	15.6760
3.3210	15.6040
3.3189	15.5520
3.3168	15.4640
3.3147	15.3630
3.3126	15.3160
3.3104	15.2720
3.3083	15.2220
3.3062	15.1270
3.3041	15.0200
3.3020	14.9460
3.2999	14.8980
3.2978	14.7980
3.2957	14.6980
3.2936	14.6300
3.2915	14.5630
3.2894	14.4740
3.2874	14.4090
3.2853	14.3090
3.2832	14.2290
3.2811	14.1300
3.2790	14.0280
3.2770	13.9790
3.2749	13.8940
3.2728	13.8030
3.2708	13.7310
3.2687	13.6580
3.2666	13.5580
3.2646	13.4670
3.2625	13.3810
3.2605	13.3240
3.2584	13.2710
3.2564	13.2080
3.2543	13.1380
3.2523	13.0950
3.2503	13.0150
3.2482	12.9330
3.2462	12.8490
3.2442	12.7780
3.2421	12.7080
3.2401	12.6190
3.2381	12.5800
3.2361	12.5100
3.2340	12.3710
3.2320	12.3100
3.2300	12.2720
3.2280	12.2170
3.2260	12.1200
3.2240	12.0560
3.2220	12.0230
3.2200	11.9560
3.2180	11.8530
3.2160	11.7710
3.2140	11.7310
3.2120	11.6600
3.2100	11.5960
3.2080	11.5160
3.2060	11.4600
3.2040	11.4010
3.2021	11.2960
3.2001	11.1620
3.1981	11.1040
3.1961	11.0770
3.1942	11.0090
3.1922	10.9320
3.1902	10.8590
3.1883	10.7830
3.1863	10.7100
3.1844	10.6820
3.1824	10.6380
3.1805	10.5520
3.1785	10.4490
3.1766	10.4140
3.1746	10.3380
3.1727	10.2590
3.1707	10.1900
3.1688	10.1060
3.1669	10.0340
3.1649	9.9730
3.1630	9.8920
3.1611	9.8626
3.1591	9.8338
3.1572	9.7559
3.1553	9.6783
3.1534	9.5978
3.1515	9.5405
3.1495	9.4799
3.1476	9.3819
3.1457	9.3047
3.1438	9.2609
3.1419	9.1892
3.1400	9.1465
3.1381	9.0813
3.1362	9.0019
3.1343	8.9399
3.1324	8.8754
3.1305	8.8165
3.1286	8.7767
3.1268	8.7365
3.1249	8.6623
3.1230	8.5992
3.1211	8.5789
3.1192	8.5230
3.1174	8.4453
3.1155	8.3982
3.1136	8.3533
3.1117	8.3154
3.1099	8.2973
3.1080	8.2665
3.1061	8.1856
3.1043	8.1473
3.1024	8.1269
3.1006	8.1258
3.0987	8.1034
3.0969	8.0633
3.0950	8.0021
3.0932	7.9319
3.0913	7.8857
3.0895	7.8397
3.0876	7.8012
3.0858	7.8024
3.0840	7.8101
3.0821	7.8102
3.0803	7.7938
3.0785	7.7345
3.0766	7.6860
3.0748	7.6520
3.0730	7.5854
3.0712	7.5401
3.0694	7.5458
3.0675	7.5387
3.0657	7.4907
3.0639	7.4360
3.0621	7.3878
3.0603	7.3795
3.0585	7.4119
3.0567	7.3955
3.0549	7.3392
3.0531	7.3004
3.0513	7.2357
3.0495	7.2452
3.0477	7.3000
3.0459	7.2805
3.0441	7.1863
3.0423	7.1566
3.0406	7.1711
3.0388	7.1452
3.0370	7.1040
3.0352	7.1026
3.0334	7.0467
3.0317	7.0210
3.0299	7.0093
3.0281	6.9706
3.0264	6.9321
3.0246	6.9438
3.0228	6.8896
3.0211	6.8680
3.0193	6.8857
3.0176	6.8726
3.0158	6.8618
3.0140	6.8850
3.0123	6.8184
3.0105	6.7868
3.0088	6.8132
3.0070	6.7623
3.0053	6.7548
3.0036	6.7141
3.0018	6.7006
3.0001	6.6897
2.9984	6.6323
2.9966	6.6383
2.9949	6.6408
2.9932	6.6345
2.9914	6.6411
2.9897	6.6214
2.9880	6.6049
2.9863	6.5507
2.9845	6.5144
2.9828	6.5171
2.9811	6.5290
2.9794	6.5199
2.9777	6.4842
2.9760	6.4159
2.9743	6.3522
2.9726	6.3465
2.9709	6.3239
2.9692	6.2690
2.9675	6.2481
2.9658	6.1973
2.9641	6.0939
2.9624	6.1012
2.9607	6.1026
2.9590	6.0996
2.9573	6.1631
2.9556	6.1488
2.9539	6.1384
2.9523	6.1650
2.9506	6.1741
2.9489	6.1793
2.9472	6.2132
2.9455	6.1471
2.9439	6.0835
2.9422	6.1666
2.9405	6.2099
2.9389	6.2677
2.9372	6.2760
2.9355	6.2014
2.9339	6.1574
2.9322	6.1717
2.9306	6.1803
2.9289	6.1851
2.9272	6.1852
2.9256	6.2085
2.9239	6.2074
2.9223	6.2315
2.9207	6.2583
2.9190	6.2613
2.9174	6.2641
2.9157	6.2384
2.9141	6.3047
2.9124	6.3054
2.9108	6.2704
2.9092	6.2388
2.9075	6.2740
2.9059	6.3297
2.9043	6.3170
2.9027	6.3205
2.9010	6.3782
2.8994	6.4237
2.8978	6.4164
2.8962	6.3850
2.8946	6.4111
2.8929	6.4595
2.8913	6.4757
2.8897	6.4834
2.8881	6.5105
2.8865	6.5310
2.8849	6.5592
2.8833	6.5771
2.8817	6.5446
2.8801	6.5189
2.8785	6.6131
2.8769	6.6121
2.8753	6.5678
2.8737	6.6135
2.8721	6.6266
2.8705	6.6029
2.8689	6.6151
2.8673	6.6983
2.8658	6.7275
2.8642	6.6777
2.8626	6.6967
2.8610	6.7687
2.8594	6.7677
2.8579	6.7887
2.8563	6.8522
2.8547	6.8182
2.8531	6.8252
2.8516	6.8590
2.8500	6.9003
2.8484	6.9035
2.8469	6.8964
2.8453	6.9105
2.8437	6.9564
2.8422	7.0023
2.8406	6.9851
2.8391	6.9625
2.8375	6.9980
2.8360	7.0391
2.8344	6.9897
2.8329	6.9466
2.8313	6.9488
2.8298	6.9861
2.8282	6.9971
2.8267	6.9663
2.8252	6.9537
2.8236	6.9624
2.8221	6.9274
2.8205	6.9114
2.8190	6.8729
2.8175	6.8436
2.8159	6.8458
2.8144	6.7805
2.8129	6.7352
2.8114	6.7922
2.8098	6.7322
2.8083	6.6248
2.8068	6.5641
2.8053	6.4911
2.8038	6.4286
2.8022	6.3787
2.8007	6.2835
2.7992	6.1716
2.7977	6.1187
2.7962	6.0819
2.7947	5.9796
2.7932	5.8803
2.7917	5.7603
2.7902	5.6228
2.7887	5.5958
2.7872	5.5709
2.7857	5.4458
2.7842	5.3390
2.7827	5.1959
2.7812	5.0075
2.7797	4.8467
2.7782	4.7734
2.7767	4.7397
2.7752	4.7286
2.7738	4.6837
2.7723	4.5303
2.7708	4.3527
2.7693	4.2188
2.7678	4.0777
2.7664	3.7499
2.7649	3.2821
2.7634	2.9248
2.7619	2.8080
2.7605	2.9119
2.7590	3.1432
2.7575	3.4270
2.7561	3.6631
2.7546	3.8631
2.7531	4.0732
2.7517	4.1368
2.7502	4.1281
2.7488	4.1625
2.7473	4.1629
2.7458	4.1227
2.7444	4.0377
2.7429	3.9030
2.7415	3.8159
2.7400	3.7587
2.7386	3.6609
2.7371	3.6283
2.7357	3.7017
2.7343	3.8157
2.7328	3.9914
2.7314	4.1670
2.7299	4.2682
2.7285	4.2783
2.7271	4.2167
2.7256	4.2049
2.7242	4.3138
2.7228	4.5361
2.7213	4.8006
2.7199	5.0979
2.7185	5.2592
2.7171	5.3287
2.7156	5.2925
2.7142	5.1296
2.7128	4.9321
2.7114	4.7494
2.7100	4.4625
2.7085	4.1943
2.7071	3.9886
2.7057	3.8751
2.7043	3.9630
2.7029	4.3330
2.7015	4.8665
2.7001	5.6021
2.6987	6.5067
2.6973	7.4081
2.6959	8.2928
2.6945	9.1712
2.6931	10.1030
2.6917	11.1270
2.6903	12.2810
2.6889	13.4200
2.6875	14.4690
2.6861	15.5760
2.6847	16.6030
2.6833	17.4980
2.6819	18.4220
2.6805	19.2810
2.6791	20.0500
2.6778	20.8150
2.6764	21.5240
2.6750	22.1360
2.6736	22.8060
2.6722	23.4420
2.6709	24.0190
2.6695	24.5860
2.6681	25.1500
2.6667	25.7430
2.6654	26.2440
2.6640	26.6750
2.6626	27.1490
2.6613	27.6060
2.6599	27.9730
2.6585	28.3500
2.6572	28.7300
2.6558	29.1300
2.6545	29.4660
2.6531	29.7850
2.6517	30.0340
2.6504	30.3020
2.6490	30.5840
2.6477	30.8360
2.6463	31.0650
2.6450	31.2660
2.6436	31.4540
2.6423	31.7300
2.6409	32.0090
2.6396	32.2080
2.6382	32.4090
2.6369	32.6360
2.6356	32.8470
2.6342	33.0550
2.6329	33.2370
2.6315	33.4390
2.6302	33.6190
2.6289	33.7190
2.6275	33.9260
2.6262	34.1660
2.6249	34.3030
2.6236	34.3870
2.6222	34.4590
2.6209	34.5520
2.6196	34.6540
2.6183	34.7220
2.6169	34.7780
2.6156	34.8380
2.6143	34.9020
2.6130	34.9540
2.6117	35.0200
2.6103	35.0920
2.6090	35.1960
2.6077	35.2440
2.6064	35.2970
2.6051	35.4340
2.6038	35.5020
2.6025	35.4880
2.6012	35.5160
2.5999	35.5660
2.5986	35.6100
2.5973	35.7250
2.5960	35.8410
2.5947	35.9090
2.5934	35.8890
2.5921	35.8780
2.5908	35.9400
2.5895	35.9890
2.5882	36.0360
2.5869	36.0920
2.5856	36.1830
2.5843	36.1870
2.5830	36.1770
2.5817	36.2160
2.5805	36.2730
2.5792	36.2880
2.5779	36.2260
2.5766	36.2270
2.5753	36.2850
2.5741	36.3040
2.5728	36.3660
2.5715	36.4160
2.5702	36.4300
2.5690	36.4690
2.5677	36.5420
2.5664	36.6540
2.5651	36.6750
2.5639	36.6930
2.5626	36.7860
2.5613	36.8660
2.5601	36.8400
2.5588	36.8560
2.5575	36.9470
2.5563	36.9420
2.5550	36.9270
2.5538	36.9220
2.5525	36.9630
2.5513	36.9080
2.5500	36.8910
2.5487	36.9300
2.5475	36.8810
2.5462	36.8020
2.5450	36.8210
2.5437	36.9020
2.5425	36.8670
2.5413	36.8900
2.5400	36.9920
2.5388	37.0620
2.5375	37.1270
2.5363	37.1820
2.5350	37.2180
2.5338	37.2370
2.5326	37.2100
2.5313	37.1770
2.5301	37.2040
2.5289	37.2530
2.5276	37.3640
2.5264	37.4690
2.5252	37.4850
2.5239	37.5010
2.5227	37.5740
2.5215	37.6050
2.5202	37.5980
2.5190	37.6120
2.5178	37.6400
2.5166	37.6740
2.5154	37.7410
2.5141	37.7700
2.5129	37.8150
2.5117	37.8110
2.5105	37.7590
2.5093	37.8500
2.5081	37.9210
2.5068	37.9930
2.5056	38.0480
2.5044	38.0520
2.5032	38.0990
2.5020	38.1880
2.5008	38.2260
2.4996	38.2930
2.4984	38.2990
2.4972	38.2440
2.4960	38.2230
2.4948	38.2980
2.4936	38.3080
2.4924	38.3290
2.4912	38.3920
2.4900	38.4200
2.4888	38.4500
2.4876	38.5090
2.4864	38.5920
2.4852	38.6940
2.4840	38.8130
2.4828	38.9310
2.4816	39.0570
2.4805	39.2340
2.4793	39.3560
2.4781	39.3860
2.4769	39.4940
2.4757	39.5610
2.4745	39.5760
2.4734	39.7020
2.4722	39.7900
2.4710	39.8200
2.4698	39.8850
2.4686	39.9530
2.4675	40.0070
2.4663	40.0300
2.4651	40.0260
2.4640	40.0220
2.4628	40.0690
2.4616	40.1100
2.4604	40.1440
2.4593	40.1850
2.4581	40.2430
2.4569	40.3020
2.4558	40.3260
2.4546	40.3560
2.4535	40.4470
2.4523	40.5550
2.4511	40.6110
2.4500	40.6700
2.4488	40.6960
2.4477	40.7760
2.4465	40.9290
2.4454	40.9940
2.4442	41.0450
2.4431	41.1200
2.4419	41.2330
2.4408	41.3630
2.4396	41.4550
2.4385	41.5890
2.4373	41.8340
2.4362	42.0820
2.4350	42.2040
2.4339	42.3360
2.4327	42.5420
2.4316	42.7660
2.4305	42.9850
2.4293	43.1010
2.4282	43.1790
2.4270	43.3650
2.4259	43.5530
2.4248	43.6460
2.4236	43.7480
2.4225	43.8510
2.4214	43.9630
2.4202	44.0810
2.4191	44.2540
2.4180	44.3190
2.4169	44.3310
2.4157	44.4030
2.4146	44.5480
2.4135	44.6810
2.4124	44.7370
2.4112	44.7920
2.4101	44.9000
2.4090	44.9440
2.4079	44.9630
2.4068	44.9970
2.4056	45.0670
2.4045	45.1480
2.4034	45.1320
2.4023	45.1030
2.4012	45.0710
2.4001	45.0840
2.3990	45.0100
2.3979	44.8670
2.3967	44.7660
2.3956	44.6640
2.3945	44.6000
2.3934	44.5510
2.3923	44.5030
2.3912	44.4190
2.3901	44.2950
2.3890	44.2620
2.3879	44.1720
2.3868	43.9890
2.3857	43.8590
2.3846	43.8310
2.3835	43.8920
2.3824	43.9730
2.3813	44.0250
2.3802	44.1600
2.3791	44.2830
2.3781	44.3860
2.3770	44.5130
2.3759	44.6310
2.3748	44.7630
2.3737	44.9030
2.3726	45.0470
2.3715	45.2130
2.3704	45.3270
2.3694	45.3720
2.3683	45.4140
2.3672	45.4010
2.3661	45.3760
2.3650	45.4060
2.3640	45.3940
2.3629	45.2260
2.3618	45.1340
2.3607	45.1000
2.3597	45.0290
2.3586	44.9900
2.3575	44.9540
2.3564	45.0030
2.3554	45.0990
2.3543	45.1770
2.3532	45.2230
2.3522	45.3400
2.3511	45.4060
2.3500	45.4530
2.3490	45.5330
2.3479	45.6280
2.3468	45.7130
2.3458	45.8010
2.3447	45.9320
2.3436	46.0800
2.3426	46.1550
2.3415	46.2310
2.3405	46.3960
2.3394	46.4980
2.3384	46.4950
2.3373	46.5780
2.3363	46.6990
2.3352	46.6770
2.3342	46.6630
2.3331	46.6850
2.3321	46.6800
2.3310	46.7320
2.3300	46.7860
2.3289	46.7220
2.3279	46.6830
2.3268	46.7520
2.3258	46.8230
2.3247	46.8750
2.3237	46.8880
2.3226	46.9600
2.3216	47.0490
2.3206	47.1080
2.3195	47.1510
2.3185	47.2390
2.3175	47.2680
2.3164	47.2540
2.3154	47.2600
2.3144	47.2890
2.3133	47.3990
2.3123	47.5340
2.3113	47.6550
2.3102	47.7810
2.3092	47.9630
2.3082	48.1450
2.3071	48.3400
2.3061	48.5090
2.3051	48.6400
2.3041	48.7070
2.3030	48.9390
2.3020	49.1020
2.3010	49.0740
2.3000	49.1100
2.2990	49.2260
2.2979	49.3670
2.2969	49.4130
2.2959	49.4300
2.2949	49.5420
2.2939	49.6620
2.2929	49.6570
2.2918	49.7560
2.2908	49.8390
2.2898	49.8950
2.2888	50.0070
2.2878	50.0720
2.2868	50.0810
2.2858	50.1870
2.2848	50.3300
2.2838	50.3920
2.2828	50.4460
2.2818	50.5630
2.2808	50.6790
2.2798	50.7050
2.2787	50.8250
2.2777	51.0380
2.2767	51.1230
2.2757	51.1740
2.2747	51.1970
2.2738	51.1920
2.2728	51.3080
2.2718	51.4420
2.2708	51.4640
2.2698	51.4420
2.2688	51.4930
2.2678	51.4990
2.2668	51.5330
2.2658	51.5640
2.2648	51.5380
2.2638	51.5470
2.2628	51.5230
2.2618	51.4710
2.2609	51.5530
2.2599	51.6100
2.2589	51.5840
2.2579	51.5560
2.2569	51.5690
2.2559	51.5690
2.2550	51.6010
2.2540	51.6140
2.2530	51.6060
2.2520	51.6100
2.2510	51.6340
2.2501	51.5520
2.2491	51.4420
2.2481	51.4440
2.2471	51.4320
2.2462	51.3800
2.2452	51.3580
2.2442	51.3920
2.2433	51.3210
2.2423	51.2320
2.2413	51.1910
2.2403	51.0380
2.2394	51.0440
2.2384	51.0640
2.2374	51.0400
2.2365	51.0380
2.2355	50.9850
2.2345	50.9530
2.2336	50.9870
2.2326	50.9650
2.2317	50.8710
2.2307	50.7570
2.2297	50.6620
2.2288	50.5690
2.2278	50.4000
2.2269	50.2600
2.2259	50.1850
2.2250	49.9770
2.2240	49.7100
2.2231	49.5080
2.2221	49.3230
2.2211	49.0990
2.2202	48.8460
2.2192	48.4530
2.2183	48.0260
2.2173	47.5370
2.2164	46.9970
2.2155	46.2960
2.2145	45.3770
2.2136	44.1720
2.2126	42.7020
2.2117	41.1060
2.2107	39.6680
2.2098	38.6660
2.2088	38.2960
2.2079	38.7750
2.2070	39.9270
2.2060	41.2620
2.2051	42.4390
2.2041	43.3930
2.2032	44.1560
2.2023	44.8360
2.2013	45.4140
2.2004	45.6950
2.1995	45.9000
2.1985	46.2050
2.1976	46.3430
2.1967	46.4320
2.1957	46.5570
2.1948	46.6200
2.1939	46.6890
2.1930	46.8570
2.1920	47.0530
2.1911	47.2360
2.1902	47.5010
2.1893	47.7310
2.1883	47.9960
2.1874	48.2870
2.1865	48.4620
2.1856	48.6190
2.1846	48.7800
2.1837	48.8200
2.1828	48.9050
2.1819	49.0400
2.1810	49.1240
2.1800	49.1360
2.1791	49.1450
2.1782	49.1360
2.1773	49.2230
2.1764	49.2690
2.1755	49.1670
2.1746	49.0200
2.1736	49.0110
2.1727	49.0090
2.1718	48.9160
2.1709	48.8630
2.1700	48.8280
2.1691	48.7180
2.1682	48.6730
2.1673	48.6010
2.1664	48.5260
2.1655	48.3850
2.1646	48.3270
2.1637	48.3990
2.1628	48.4260
2.1619	48.3880
2.1610	48.4230
2.1601	48.5280
2.1592	48.6390
2.1583	48.8090
2.1574	49.0260
2.1565	49.2580
2.1556	49.3890
2.1547	49.5980
2.1538	49.9290
2.1529	50.1300
2.1520	50.3670
2.1511	50.7220
2.1502	51.0490
2.1493	51.3650
2.1484	51.7290
2.1475	52.1640
2.1466	52.6130
2.1458	52.9930
2.1449	53.2910
2.1440	53.5420
2.1431	53.8000
2.1422	54.1020
2.1413	54.3060
2.1404	54.3290
2.1396	54.4360
2.1387	54.7550
2.1378	55.0580
2.1369	55.0630
2.1360	55.1590
2.1352	55.3860
2.1343	55.4330
2.1334	55.4600
2.1325	55.5720
2.1316	55.6680
2.1308	55.6810
2.1299	55.6770
2.1290	55.7530
2.1281	55.8950
2.1273	55.9430
2.1264	55.9940
2.1255	55.9840
2.1247	55.9730
2.1238	55.9410
2.1229	56.0040
2.1220	56.0920
2.1212	56.2670
2.1203	56.3110
2.1194	56.2480
2.1186	56.1750
2.1177	56.0960
2.1168	56.0450
2.1160	56.0780
2.1151	56.0340
2.1143	55.9370
2.1134	55.9680
2.1125	56.0580
2.1117	56.1980
2.1108	56.2580
2.1100	56.3140
2.1091	56.3970
2.1082	56.5910
2.1074	56.7660
2.1065	56.7700
2.1057	56.8700
2.1048	57.0060
2.1040	56.9840
2.1031	56.9810
2.1023	57.0230
2.1014	57.0770
2.1005	57.0570
2.0997	57.0000
2.0988	56.9760
2.0980	56.9900
2.0971	57.0400
2.0963	57.0920
2.0955	57.1340
2.0946	57.1280
2.0938	57.1760
2.0929	57.1270
2.0921	57.1150
2.0912	57.1870
2.0904	57.1380
2.0895	57.2460
2.0887	57.1790
2.0879	57.0550
2.0870	57.1230
2.0862	57.2000
2.0853	57.2140
2.0845	57.3300
2.0837	57.4700
2.0828	57.5650
2.0820	57.5900
2.0812	57.6260
2.0803	57.6640
2.0795	57.6900

