Name:  Black gloss paint
Type:  Manmade materials
Class:  General Construction Materials
Subclass:  Paints
Particle Size: Solid
Sample No.: 0403UUUPNT
Owner: National Photographic Interpretation Center 
Wavelength Range:  All
Origin: Spectra obtained from the Noncoventional Exploitation Factors 
Data System of the National Photographic Interpretation Center. 
Description: Two smooth coats of slightly translucent alkyd gloss 
paint on an aluminum surface. Black gloss paint is from the Great 
Life series by Martin Senour Paints. The paint is non-
photochemically reactive.


Measurement:  Directional (10 Degree) Hemispherical Reflectance
First Column:  X
Second Column:  Y  
X Units:  Wavelength (micrometers)
Y Units:  Reflectance (percent)
First X Value: 0.42
Last X Value: 14
Number of X Values: 491
Additional Information:  None

0.42	3.9083
0.422	4.328
0.424	4.5794
0.426	4.3235
0.428	4.5205
0.43	4.2969
0.432	4.5705
0.434	4.5305
0.436	4.4647
0.438	4.567
0.44	4.5125
0.442	4.4726
0.444	4.4935
0.446	4.459
0.448	4.4132
0.45	4.3743
0.452	4.3743
0.454	4.3866
0.456	4.3655
0.458	4.3631
0.46	4.3602
0.462	4.3705
0.464	4.3722
0.466	4.3917
0.468	4.3765
0.47	4.3895
0.472	4.3672
0.474	4.3708
0.476	4.3736
0.478	4.3706
0.48	4.3635
0.482	4.3581
0.484	4.3673
0.486	4.365
0.488	4.3507
0.49	4.37
0.492	4.3619
0.494	4.3596
0.496	4.3573
0.498	4.3428
0.5	4.3382
0.502	4.339
0.504	4.3514
0.506	4.3479
0.508	4.3524
0.51	4.3472
0.512	4.3341
0.514	4.3359
0.516	4.3351
0.518	4.331
0.52	4.3174
0.522	4.326
0.524	4.3166
0.526	4.3269
0.528	4.3328
0.53	4.3386
0.532	4.3454
0.534	4.3552
0.536	4.3497
0.538	4.3474
0.54	4.3464
0.542	4.3368
0.544	4.3271
0.546	4.32
0.548	4.3044
0.55	4.298
0.552	4.2977
0.554	4.3025
0.556	4.3168
0.558	4.3221
0.56	4.3324
0.562	4.3338
0.564	4.3055
0.566	4.2858
0.568	4.2988
0.57	4.2828
0.572	4.2653
0.574	4.268
0.576	4.2764
0.578	4.2688
0.58	4.2442
0.582	4.245
0.584	4.2538
0.586	4.2244
0.588	4.2533
0.59	4.228
0.592	4.2405
0.594	4.2261
0.596	4.1994
0.598	4.2183
0.6	4.1895
0.602	4.1948
0.604	4.1686
0.606	4.1729
0.608	4.1557
0.61	4.1529
0.612	4.1516
0.614	4.1655
0.616	4.1464
0.618	4.1563
0.62	4.1605
0.622	4.1588
0.624	4.1496
0.626	4.1572
0.628	4.1813
0.63	4.1693
0.632	4.1783
0.634	4.1624
0.636	4.16
0.638	4.1832
0.64	4.1799
0.642	4.1771
0.644	4.1783
0.646	4.1786
0.648	4.1815
0.65	4.1703
0.652	4.1952
0.654	4.1803
0.656	4.1591
0.658	4.1918
0.66	4.1885
0.662	4.2055
0.664	4.1615
0.666	4.1945
0.668	4.1578
0.67	4.1719
0.672	4.1861
0.674	4.1935
0.676	4.1572
0.678	4.1773
0.68	4.1359
0.682	4.1841
0.684	4.1572
0.686	4.1634
0.688	4.1681
0.69	4.161
0.692	4.1582
0.694	4.1658
0.696	4.1557
0.698	4.147
0.7	4.1532
0.702	4.1606
0.704	4.1607
0.706	4.15
0.708	4.1801
0.71	4.1617
0.712	4.1619
0.714	4.1555
0.716	4.1541
0.718	4.1484
0.72	4.1597
0.722	4.1501
0.724	4.1603
0.726	4.1544
0.728	4.1543
0.73	4.1687
0.732	4.1776
0.734	4.1669
0.736	4.1583
0.738	4.1675
0.74	4.1626
0.742	4.1873
0.744	4.1589
0.746	4.1616
0.748	4.1767
0.75	4.1775
0.752	4.1711
0.754	4.1843
0.756	4.1825
0.758	4.1773
0.76	4.179
0.762	4.1683
0.764	4.1758
0.766	4.1866
0.768	4.1679
0.77	4.1946
0.772	4.1849
0.774	4.1867
0.776	4.1823
0.778	4.1903
0.78	4.1846
0.782	4.189
0.784	4.1872
0.786	4.1799
0.788	4.1915
0.79	4.1941
0.792	4.2031
0.794	4.1926
0.796	4.1998
0.798	4.2008
0.8	4.2062
0.82	4.2129
0.84	4.2324
0.86	4.2546
0.88	4.2699
0.9	4.2869
0.92	4.3013
0.94	4.3309
0.96	4.3333
0.98	4.3356
1	4.3381
1.02	4.3348
1.04	4.3335
1.06	4.3399
1.08	4.3312
1.1	4.3381
1.12	4.3472
1.14	4.38
1.16	4.3614
1.18	4.4209
1.2	4.4352
1.22	4.3725
1.24	4.4755
1.26	4.486
1.28	4.4217
1.3	4.4067
1.32	4.3768
1.34	4.3592
1.36	4.5252
1.38	4.5126
1.4	4.4663
1.42	4.4177
1.44	4.4042
1.46	4.4464
1.48	4.4824
1.5	4.4814
1.52	4.4528
1.54	4.4333
1.56	4.4623
1.58	4.4702
1.6	4.4701
1.62	4.4709
1.64	4.4492
1.66	4.4421
1.68	4.4205
1.7	4.4241
1.72	4.39
1.74	4.3982
1.76	4.3884
1.78	4.3939
1.8	4.4049
1.82	4.4696
1.84	4.554
1.86	4.5264
1.88	4.4648
1.9	4.4926
1.92	4.4727
1.94	4.3991
1.96	4.3825
1.98	4.396
2	4.4105
2.02	4.3986
2.04	4.4187
2.06	4.4338
2.08	4.4516
2.1	4.4682
2.12	4.4936
2.14	4.5065
2.16	4.4957
2.18	4.497
2.2	4.51
2.22	4.4817
2.24	4.519
2.26	4.4816
2.28	4.4961
2.3	4.5101
2.32	4.5744
2.34	4.4902
2.36	4.5217
2.38	4.5142
2.4	4.6022
2.42	4.5412
2.44	4.5035
2.46	4.4577
2.48	4.4483
2.5	4.533
2.52	4.5647
2.54	4.5994
2.56	4.5126
2.58	4.4438
2.6	4.5267
2.62	4.511
2.64	4.5473
2.66	4.5666
2.68	4.567
2.7	4.4948
2.72	4.381
2.74	4.338
2.76	4.4162
2.78	4.3481
2.8	4.2584
2.82	4.2117
2.84	4.1613
2.86	4.0378
2.88	4.1552
2.9	4.2059
2.92	4.1162
2.94	4.2073
2.96	4.2878
2.98	4.2721
3	4.2048
3.02	4.3104
3.04	4.2971
3.06	4.2287
3.08	4.2661
3.1	4.2698
3.12	4.2589
3.14	4.3143
3.16	4.3445
3.18	4.3116
3.2	4.2779
3.22	4.271
3.24	4.3014
3.26	4.2512
3.28	4.2202
3.3	4.203
3.32	4.126
3.34	4.01
3.36	3.8622
3.38	3.8329
3.4	3.8887
3.42	4.3458
3.44	4.4499
3.46	4.3922
3.48	4.2687
3.5	4.3799
3.52	4.6572
3.54	4.6898
3.56	4.702
3.58	4.6689
3.6	4.7023
3.62	4.7075
3.64	4.7147
3.66	4.6822
3.68	4.6832
3.7	4.7505
3.72	4.7171
3.74	4.6466
3.76	4.6748
3.78	4.6741
3.8	4.705
3.82	4.7174
3.84	4.7562
3.86	4.7395
3.88	4.7485
3.9	4.698
3.92	4.7529
3.94	4.7858
3.96	4.7721
3.98	4.8042
4	4.8224
4.02	4.7457
4.04	4.8189
4.06	4.7973
4.08	4.8387
4.1	4.8251
4.12	4.8345
4.14	4.8624
4.16	4.8133
4.18	4.8486
4.2	4.8761
4.22	4.8684
4.24	4.8799
4.26	4.8757
4.28	4.9087
4.3	4.871
4.32	4.9173
4.34	4.9236
4.36	4.9044
4.38	4.9047
4.4	4.9441
4.42	4.9118
4.44	4.9496
4.46	4.9381
4.48	4.9169
4.5	4.9554
4.52	4.966
4.54	4.9586
4.56	4.921
4.58	4.9589
4.6	4.9651
4.62	4.9715
4.64	4.9573
4.66	4.959
4.68	4.9627
4.7	4.9641
4.72	4.9626
4.74	4.9563
4.76	4.971
4.78	4.9633
4.8	4.9607
4.82	4.9506
4.84	4.9662
4.86	4.9775
4.88	4.9603
4.9	4.9741
4.92	4.9618
4.94	4.9712
4.96	4.9564
4.98	4.9445
5	4.9279
5.1	4.9318
5.2	4.9161
5.3	4.8142
5.4	4.739
5.5	4.4844
5.6	3.7894
5.7	2.5677
5.8	5.3723
5.9	5.1017
6	4.883
6.1	4.7814
6.2	4.6798
6.3	4.6296
6.4	4.8604
6.5	4.9541
6.6	4.8714
6.7	4.3693
6.8	3.7724
6.9	4.1376
7	4.2048
7.1	4.119
7.2	4.0124
7.3	4.0596
7.4	3.9485
7.5	3.6924
7.6	3.3559
7.7	3.3522
7.8	3.8926
7.9	4.4424
8	4.909
8.1	4.7456
8.2	4.4799
8.3	4.281
8.4	4.1244
8.5	4.2034
8.6	4.4037
8.7	4.3489
8.8	4.605
8.9	5.017
9	5.382
9.1	5.3304
9.2	5.6037
9.3	6.3758
9.4	6.7385
9.5	6.3626
9.6	6.3379
9.7	6.4409
9.8	6.3486
9.9	6.3403
10	6.1762
10.1	6.1185
10.2	6.0322
10.3	6.0016
10.4	6.0983
10.5	6.146
10.6	6.0721
10.7	5.9801
10.8	5.9629
10.9	6.0321
11	6.0726
11.1	6.0765
11.2	6.0711
11.3	6.0433
11.4	6.1226
11.5	6.234
11.6	6.3151
11.7	6.3505
11.8	6.3367
11.9	6.3672
12	6.3997
12.1	6.4127
12.2	6.1937
12.3	5.891
12.4	5.2042
12.5	4.9971
12.6	5.433
12.7	5.4731
12.8	5.3996
12.9	5.7105
13	6.0637
13.1	6.1851
13.2	6.0081
13.3	5.5382
13.4	5.4209
13.5	5.7127
13.6	6.1359
13.7	6.3271
13.8	6.47
13.9	6.6422
14	6.5264
