Name: Bloedite Na2Mg(So4)2 * 3H2O
Type: Mineral
Class: Sulfate
Subclass: None
Particle Size: Unsieved coarse powder
Sample No.: GDS147
Owner: USGS
Wavelength range: 0.40 - 14.05 um
Origin: Soda Lake, California

Description: Bloedite powder from Soda Lake, California





Measurement: Directional Hemispherical Reflectance
First Column: X
Second Column: Y
X Units: Wavelength (micrometers)
Y Units: Reflectance (percent)
First X Value: 14.05105
Last X Value: 0.40000
Number of X Values: 2756
Additional Information: None

 14.051   1.9055
 14.013   1.8334
 13.975   1.8231
 13.938   1.8231
 13.900   1.8746
 13.863   1.6686
 13.826   1.7613
 13.790   1.7304
 13.753   1.8025
 13.717   1.7510
 13.680   1.7510
 13.644   1.6274
 13.609   1.6583
 13.573   1.6377
 13.538   1.6995
 13.502   1.7098
 13.467   1.7304
 13.432   1.6583
 13.398   1.5965
 13.363   1.5038
 13.329   1.6068
 13.295   1.4935
 13.261   1.4626
 13.227   1.3081
 13.193   1.3287
 13.160   1.3184
 13.126   1.3699
 13.093   1.3184
 13.060   1.3699
 13.027   1.3081
 12.995   1.3493
 12.962   1.3081
 12.930   1.2875
 12.898   1.2566
 12.866   1.3905
 12.834   1.3287
 12.802   1.3287
 12.771   1.3905
 12.739   1.3905
 12.708   1.2463
 12.677   1.3184
 12.646   1.3596
 12.616   1.4214
 12.585   1.3184
 12.554   1.3596
 12.524   1.4214
 12.494   1.5141
 12.464   1.4523
 12.434   1.5038
 12.404   1.5038
 12.375   1.5656
 12.345   1.4935
 12.316   1.5244
 12.287   1.5141
 12.258   1.5347
 12.229   1.5244
 12.200   1.7201
 12.171   1.6995
 12.143   1.6583
 12.115   1.5347
 12.086   1.5862
 12.058   1.5759
 12.030   1.5965
 12.002   1.5141
 11.975   1.5553
 11.947   1.5450
 11.920   1.5965
 11.892   1.6274
 11.865   1.6377
 11.838   1.4626
 11.811   1.3699
 11.784   1.2772
 11.757   1.2463
 11.731   1.1845
 11.704   1.3184
 11.678   1.3493
 11.652   1.3802
 11.626   1.2154
 11.600   1.1742
 11.574   1.2154
 11.548   1.2669
 11.522   1.2360
 11.497   1.3596
 11.471   1.3493
 11.446   1.3081
 11.421   1.2463
 11.396   1.2463
 11.371   1.2051
 11.346   1.3081
 11.321   1.2669
 11.297   1.2566
 11.272   1.1845
 11.248   1.2669
 11.223   1.3390
 11.199   1.4008
 11.175   1.3905
 11.151   1.4832
 11.127   1.4317
 11.103   1.5141
 11.079   1.5038
 11.056   1.5141
 11.032   1.5347
 11.009   1.5965
 10.985   1.6068
 10.962   1.7510
 10.939   1.7716
 10.916   1.8643
 10.893   1.8437
 10.870   1.8437
 10.848   1.8128
 10.825   1.9055
 10.802   1.9673
 10.780   2.0497
 10.758   1.9879
 10.735   1.9776
 10.713   2.0188
 10.691   2.1527
 10.669   2.1733
 10.647   2.2351
 10.625   2.2145
 10.604   2.2248
 10.582   2.2454
 10.560   2.3175
 10.539   2.2660
 10.518   2.2866
 10.496   2.3072
 10.475   2.4720
 10.454   2.4720
 10.433   2.4926
 10.412   2.5235
 10.391   2.5544
 10.370   2.5853
 10.350   2.6265
 10.329   2.5235
 10.309   2.6162
 10.288   2.6471
 10.268   2.6265
 10.247   2.6368
 10.227   2.6574
 10.207   2.6162
 10.187   2.6677
 10.167   2.6883
 10.147   2.7707
 10.127   2.6677
 10.108   2.7192
 10.088   2.7604
 10.068   2.8222
 10.049   2.8016
 10.029   2.7398
 10.010   2.4102
  9.991   2.2763
  9.972   2.3381
  9.952   2.4720
  9.933   2.5132
  9.914   2.6265
  9.895   2.6574
  9.877   2.7501
  9.858   2.8428
  9.839   2.8943
  9.821   2.9355
  9.802   3.0076
  9.783   2.9252
  9.765   2.9664
  9.747   3.0385
  9.728   3.1209
  9.710   3.0797
  9.692   3.1724
  9.674   3.2239
  9.656   3.2960
  9.638   3.2445
  9.620   3.2445
  9.602   3.2548
  9.585   3.3784
  9.567   3.3887
  9.549   3.3990
  9.532   3.4608
  9.514   3.4917
  9.497   3.5741
  9.479   3.7183
  9.462   3.7389
  9.445   3.8831
  9.428   3.9552
  9.411   3.9964
  9.394   4.0273
  9.377   4.2024
  9.360   4.3981
  9.343   4.5835
  9.326   4.7071
  9.309   4.8719
  9.293   4.9955
  9.276   5.3251
  9.259   5.5517
  9.243   5.7680
  9.226   6.0873
  9.210   6.4478
  9.194   6.7259
  9.178   7.0864
  9.161   7.4263
  9.145   7.7971
  9.129   8.0237
  9.113   8.3018
  9.097   8.4666
  9.081   8.6417
  9.065   8.8374
  9.049   9.1258
  9.034   9.3112
  9.018   9.4657
  9.002   9.6305
  8.987   9.8365
  8.971   9.9601
  8.956  10.1043
  8.940  10.1970
  8.925  10.4236
  8.909  10.6090
  8.894  10.5369
  8.879  10.2073
  8.864   9.7541
  8.849   9.2185
  8.834   8.8168
  8.819   8.3224
  8.804   8.1267
  8.789   8.2194
  8.774   8.5490
  8.759   8.8271
  8.744   9.2082
  8.730   9.6923
  8.715  10.3103
  8.700  10.9592
  8.686  11.8038
  8.671  12.6072
  8.657  13.4106
  8.642  14.0698
  8.628  14.5642
  8.614  14.6363
  8.599  14.4097
  8.585  13.9874
  8.571  13.6372
  8.557  13.2870
  8.543  13.0810
  8.529  12.9986
  8.515  13.0089
  8.501  13.0398
  8.487  13.1634
  8.473  13.2046
  8.459  13.2046
  8.445  13.0707
  8.431  12.8853
  8.418  12.7205
  8.404  12.4630
  8.391  12.1128
  8.377  11.8141
  8.363  11.3918
  8.350  10.8768
  8.337  10.2485
  8.323   9.5687
  8.310   8.6726
  8.297   7.6117
  8.283   6.5199
  8.270   5.4384
  8.257   4.4290
  8.244   3.6256
  8.231   2.9355
  8.218   2.3896
  8.205   1.9467
  8.192   1.6377
  8.179   1.3287
  8.166   1.0918
  8.153   0.8755
  8.140   0.7828
  8.128   0.6386
  8.115   0.4944
  8.102   0.4429
  8.090   0.4738
  8.077   0.3811
  8.064   0.3296
  8.052   0.2781
  8.039   0.3399
  8.027   0.3708
  8.015   0.3090
  8.002   0.2266
  7.990   0.3605
  7.978   0.4223
  7.965   0.4017
  7.953   0.3193
  7.941   0.3296
  7.929   0.3708
  7.917   0.4017
  7.905   0.3914
  7.893   0.4120
  7.881   0.3914
  7.869   0.4017
  7.857   0.3708
  7.845   0.4326
  7.833   0.4635
  7.821   0.4635
  7.809   0.4429
  7.798   0.4326
  7.786   0.3811
  7.774   0.4532
  7.763   0.4841
  7.751   0.5253
  7.739   0.5459
  7.728   0.5974
  7.716   0.5768
  7.705   0.5871
  7.694   0.6077
  7.682   0.6592
  7.671   0.6489
  7.659   0.6489
  7.648   0.6386
  7.637   0.6901
  7.626   0.7004
  7.614   0.7210
  7.603   0.7519
  7.592   0.7931
  7.581   0.7416
  7.570   0.7931
  7.559   0.8240
  7.548   0.8961
  7.537   0.8755
  7.526   0.8240
  7.515   0.8549
  7.504   0.9476
  7.493   0.9476
  7.483   0.9167
  7.472   0.9167
  7.461   0.9682
  7.450   0.9270
  7.440   0.9991
  7.429   1.0403
  7.418   1.0506
  7.408   1.0094
  7.397   1.0403
  7.387   1.0815
  7.376   1.1330
  7.366   1.1330
  7.355   1.1124
  7.345   1.0815
  7.334   1.1433
  7.324   1.1536
  7.314   1.1845
  7.303   1.2051
  7.293   1.2360
  7.283   1.2154
  7.273   1.2257
  7.263   1.1845
  7.252   1.1845
  7.242   1.1639
  7.232   1.2154
  7.222   1.2772
  7.212   1.2978
  7.202   1.2566
  7.192   1.2978
  7.182   1.2978
  7.172   1.2566
  7.162   1.2154
  7.152   1.2463
  7.143   1.2978
  7.133   1.3390
  7.123   1.3287
  7.113   1.3596
  7.103   1.3596
  7.094   1.3390
  7.084   1.3493
  7.074   1.3905
  7.065   1.4008
  7.055   1.3802
  7.046   1.3081
  7.036   1.3390
  7.026   1.3287
  7.017   1.3184
  7.007   1.2978
  6.998   1.3596
  6.989   1.3905
  6.979   1.3905
  6.970   1.3390
  6.960   1.3390
  6.951   1.4008
  6.942   1.4111
  6.932   1.3184
  6.923   1.3184
  6.914   1.3905
  6.905   1.4214
  6.896   1.3802
  6.886   1.4008
  6.877   1.3802
  6.868   1.3493
  6.859   1.4214
  6.850   1.4935
  6.841   1.4008
  6.832   1.4317
  6.823   1.4523
  6.814   1.4523
  6.805   1.4317
  6.796   1.5141
  6.787   1.5553
  6.778   1.5450
  6.770   1.5141
  6.761   1.5038
  6.752   1.5141
  6.743   1.4935
  6.734   1.4523
  6.726   1.4317
  6.717   1.4626
  6.708   1.5656
  6.700   1.6171
  6.691   1.6068
  6.682   1.5347
  6.674   1.5759
  6.665   1.5553
  6.657   1.5347
  6.648   1.5347
  6.640   1.5656
  6.631   1.5553
  6.623   1.5244
  6.614   1.5244
  6.606   1.5450
  6.597   1.5450
  6.589   1.5965
  6.581   1.5862
  6.572   1.5759
  6.564   1.5347
  6.556   1.5347
  6.547   1.5141
  6.539   1.4832
  6.531   1.4729
  6.523   1.5244
  6.514   1.5038
  6.506   1.4317
  6.498   1.3802
  6.490   1.4420
  6.482   1.4626
  6.474   1.4626
  6.466   1.4523
  6.458   1.4523
  6.450   1.3802
  6.442   1.4214
  6.434   1.4626
  6.426   1.3802
  6.418   1.3287
  6.410   1.3596
  6.402   1.3390
  6.394   1.3699
  6.386   1.3699
  6.378   1.3596
  6.370   1.3390
  6.363   1.3287
  6.355   1.3081
  6.347   1.3596
  6.339   1.3390
  6.332   1.3081
  6.324   1.2669
  6.316   1.2772
  6.308   1.2978
  6.301   1.3287
  6.293   1.3081
  6.286   1.2772
  6.278   1.3493
  6.270   1.4008
  6.263   1.3596
  6.255   1.3390
  6.248   1.3081
  6.240   1.3287
  6.233   1.3802
  6.225   1.4008
  6.218   1.3390
  6.210   1.2978
  6.203   1.2875
  6.195   1.3596
  6.188   1.4008
  6.181   1.4008
  6.173   1.3390
  6.166   1.3390
  6.159   1.4008
  6.151   1.4420
  6.144   1.3905
  6.137   1.3802
  6.130   1.3802
  6.122   1.3905
  6.115   1.4420
  6.108   1.4729
  6.101   1.3596
  6.094   1.3596
  6.086   1.3699
  6.079   1.3184
  6.072   1.2463
  6.065   1.2772
  6.058   1.3287
  6.051   1.3184
  6.044   1.3081
  6.037   1.3081
  6.030   1.3081
  6.023   1.3081
  6.016   1.2669
  6.009   1.2669
  6.002   1.1948
  5.995   1.1536
  5.988   1.1536
  5.981   1.1845
  5.974   1.1639
  5.967   1.1433
  5.960   1.1124
  5.954   1.0815
  5.947   1.0403
  5.940   0.9682
  5.933   0.9682
  5.926   1.0094
  5.920   0.9785
  5.913   1.0094
  5.906   1.0300
  5.899   1.0403
  5.893   1.0815
  5.886   1.1124
  5.879   1.0712
  5.873   1.0300
  5.866   1.0403
  5.859   1.1227
  5.853   1.1845
  5.846   1.2257
  5.840   1.2669
  5.833   1.3390
  5.827   1.3802
  5.820   1.4111
  5.813   1.4523
  5.807   1.4832
  5.800   1.4935
  5.794   1.5141
  5.788   1.5553
  5.781   1.5862
  5.775   1.5656
  5.768   1.5862
  5.762   1.6171
  5.755   1.6274
  5.749   1.6377
  5.743   1.6377
  5.736   1.5656
  5.730   1.5862
  5.724   1.6274
  5.717   1.6789
  5.711   1.6789
  5.705   1.6686
  5.698   1.6686
  5.692   1.6583
  5.686   1.6583
  5.680   1.6995
  5.674   1.6995
  5.667   1.7098
  5.661   1.6789
  5.655   1.6789
  5.649   1.6995
  5.643   1.6686
  5.637   1.6686
  5.630   1.7201
  5.624   1.7716
  5.618   1.7819
  5.612   1.7819
  5.606   1.8025
  5.600   1.8025
  5.594   1.8437
  5.588   1.8952
  5.582   1.9261
  5.576   1.9673
  5.570   1.9776
  5.564   2.0291
  5.558   2.0703
  5.552   2.1115
  5.546   2.2145
  5.540   2.2454
  5.534   2.2145
  5.528   2.2145
  5.523   2.3072
  5.517   2.3690
  5.511   2.4102
  5.505   2.4617
  5.499   2.5235
  5.493   2.5338
  5.487   2.6368
  5.482   2.7295
  5.476   2.7501
  5.470   2.7192
  5.464   2.7398
  5.459   2.8119
  5.453   2.8943
  5.447   2.8943
  5.441   2.8943
  5.436   2.9561
  5.430   2.9870
  5.424   3.0076
  5.419   2.9664
  5.413   2.9767
  5.407   3.0591
  5.402   3.1209
  5.396   3.1518
  5.390   3.1930
  5.385   3.2136
  5.379   3.2445
  5.374   3.2754
  5.368   3.2857
  5.363   3.2960
  5.357   3.3372
  5.352   3.3681
  5.346   3.3372
  5.341   3.3578
  5.335   3.4402
  5.330   3.5020
  5.324   3.4711
  5.319   3.4505
  5.313   3.4917
  5.308   3.5535
  5.302   3.5638
  5.297   3.5947
  5.291   3.6153
  5.286   3.6359
  5.281   3.6668
  5.275   3.6874
  5.270   3.6874
  5.265   3.6977
  5.259   3.7080
  5.254   3.7389
  5.249   3.8007
  5.243   3.8419
  5.238   3.8213
  5.233   3.8316
  5.227   3.8728
  5.222   3.8831
  5.217   3.9140
  5.212   3.9449
  5.206   3.9552
  5.201   3.9552
  5.196   3.9346
  5.191   3.9346
  5.186   3.9552
  5.180   3.9861
  5.175   4.0067
  5.170   3.9861
  5.165   3.9964
  5.160   4.0685
  5.155   4.0788
  5.150   4.0788
  5.145   4.0891
  5.139   4.1097
  5.134   4.1097
  5.129   4.0582
  5.124   4.0273
  5.119   4.0376
  5.114   4.0788
  5.109   4.1200
  5.104   4.0788
  5.099   4.0891
  5.094   4.0891
  5.089   4.0479
  5.084   4.0479
  5.079   4.0376
  5.074   3.9861
  5.069   3.9655
  5.064   3.9758
  5.059   3.9861
  5.054   3.9243
  5.049   3.8728
  5.044   3.8007
  5.040   3.6977
  5.035   3.6668
  5.030   3.6977
  5.025   3.7595
  5.020   3.8316
  5.015   3.9243
  5.010   3.9552
  5.005   4.0067
  5.001   4.0376
  4.996   4.0479
  4.991   4.0582
  4.986   4.0067
  4.981   4.0067
  4.977   4.0170
  4.972   3.9964
  4.967   3.9964
  4.962   3.9861
  4.958   3.9861
  4.953   3.9861
  4.948   3.9552
  4.943   3.9346
  4.939   3.8831
  4.934   3.8419
  4.929   3.8213
  4.925   3.8007
  4.920   3.7801
  4.915   3.7801
  4.911   3.7286
  4.906   3.6565
  4.901   3.6153
  4.897   3.5329
  4.892   3.4711
  4.888   3.4505
  4.883   3.4196
  4.878   3.3166
  4.874   3.2342
  4.869   3.2239
  4.865   3.1621
  4.860   3.0694
  4.856   2.9561
  4.851   2.9252
  4.846   2.9149
  4.842   2.8222
  4.837   2.8119
  4.833   2.8531
  4.828   2.8016
  4.824   2.7810
  4.819   2.7501
  4.815   2.7192
  4.810   2.6986
  4.806   2.6986
  4.802   2.7192
  4.797   2.7810
  4.793   2.7810
  4.788   2.7295
  4.784   2.7501
  4.779   2.7707
  4.775   2.7398
  4.771   2.6574
  4.766   2.6368
  4.762   2.6265
  4.758   2.6162
  4.753   2.6368
  4.749   2.6059
  4.744   2.5853
  4.740   2.5750
  4.736   2.5338
  4.731   2.5132
  4.727   2.5235
  4.723   2.5441
  4.719   2.5441
  4.714   2.5544
  4.710   2.5853
  4.706   2.5647
  4.701   2.5647
  4.697   2.5750
  4.693   2.6162
  4.689   2.6677
  4.684   2.6677
  4.680   2.6780
  4.676   2.6780
  4.672   2.6986
  4.668   2.7707
  4.663   2.7295
  4.659   2.6986
  4.655   2.7089
  4.651   2.6883
  4.647   2.7295
  4.643   2.7192
  4.638   2.6471
  4.634   2.6471
  4.630   2.6265
  4.626   2.6059
  4.622   2.6574
  4.618   2.6986
  4.614   2.6677
  4.610   2.6471
  4.605   2.6677
  4.601   2.6986
  4.597   2.6677
  4.593   2.6162
  4.589   2.6059
  4.585   2.6162
  4.581   2.5956
  4.577   2.5750
  4.573   2.6265
  4.569   2.6471
  4.565   2.6265
  4.561   2.6368
  4.557   2.6574
  4.553   2.6780
  4.549   2.7295
  4.545   2.8016
  4.541   2.8222
  4.537   2.8428
  4.533   2.8737
  4.529   2.8840
  4.525   2.8531
  4.521   2.8634
  4.517   2.8531
  4.513   2.8737
  4.509   2.8840
  4.505   2.8428
  4.502   2.8531
  4.498   2.8428
  4.494   2.8840
  4.490   2.9252
  4.486   2.9046
  4.482   2.9046
  4.478   2.8943
  4.474   2.8428
  4.470   2.8737
  4.467   2.8943
  4.463   2.9355
  4.459   2.9458
  4.455   2.8840
  4.451   2.9046
  4.447   2.9458
  4.444   2.9252
  4.440   2.8943
  4.436   2.9149
  4.432   2.9870
  4.428   2.9973
  4.425   2.9767
  4.421   2.9664
  4.417   2.9870
  4.413   2.9973
  4.410   3.0385
  4.406   3.0488
  4.402   3.0282
  4.398   3.0282
  4.395   3.0282
  4.391   3.0076
  4.387   2.9767
  4.384   3.0076
  4.380   3.0488
  4.376   3.0076
  4.372   2.9973
  4.369   2.9767
  4.365   2.9767
  4.361   3.0076
  4.358   3.0385
  4.354   3.0282
  4.350   3.0694
  4.347   3.0797
  4.343   3.0179
  4.340   2.9561
  4.336   3.0282
  4.332   3.1003
  4.329   3.0900
  4.325   3.0694
  4.321   3.0797
  4.318   3.0900
  4.314   3.1003
  4.311   3.1209
  4.307   3.1312
  4.304   3.1415
  4.300   3.1621
  4.296   3.1518
  4.293   3.1003
  4.289   3.0694
  4.286   3.1827
  4.282   3.2239
  4.279   3.2651
  4.275   3.2754
  4.272   3.2960
  4.268   3.3475
  4.265   3.2960
  4.261   3.2651
  4.258   3.3063
  4.254   3.2960
  4.251   3.2651
  4.247   3.3063
  4.244   3.3578
  4.240   3.3990
  4.237   3.4608
  4.233   3.5123
  4.230   3.5226
  4.226   3.5638
  4.223   3.5638
  4.219   3.5329
  4.216   3.5844
  4.213   3.6256
  4.209   3.6977
  4.206   3.6874
  4.202   3.6668
  4.199   3.8007
  4.196   3.8110
  4.192   3.6977
  4.189   3.7698
  4.185   3.8522
  4.182   3.8522
  4.179   3.8522
  4.175   3.8728
  4.172   3.8728
  4.169   3.9449
  4.165   3.9964
  4.162   3.9964
  4.159   4.0067
  4.155   4.0067
  4.152   4.0582
  4.149   4.1612
  4.145   4.2024
  4.142   4.1509
  4.139   4.1200
  4.135   4.2230
  4.132   4.2745
  4.129   4.1303
  4.126   4.0788
  4.122   4.1612
  4.119   4.1406
  4.116   4.1715
  4.112   4.2333
  4.109   4.2848
  4.106   4.3672
  4.103   4.3981
  4.099   4.3981
  4.096   4.4702
  4.093   4.4393
  4.090   4.4805
  4.086   4.5938
  4.083   4.6144
  4.080   4.5835
  4.077   4.5320
  4.074   4.5217
  4.070   4.6144
  4.067   4.6350
  4.064   4.7071
  4.061   4.7792
  4.058   4.7071
  4.055   4.6350
  4.051   4.7174
  4.048   4.7895
  4.045   4.7895
  4.042   4.7895
  4.039   4.8410
  4.036   4.8307
  4.032   4.7998
  4.029   4.8204
  4.026   4.8925
  4.023   4.9234
  4.020   4.9646
  4.017   4.9646
  4.014   4.9543
  4.011   4.9749
  4.008   5.0470
  4.004   5.0985
  4.001   5.0882
  3.998   5.0779
  3.995   5.0985
  3.992   5.0779
  3.989   5.0676
  3.986   5.0985
  3.983   5.0985
  3.980   5.0882
  3.977   5.0882
  3.974   5.1294
  3.971   5.1397
  3.968   5.1500
  3.965   5.1706
  3.962   5.1397
  3.959   5.1191
  3.956   5.1397
  3.953   5.1603
  3.950   5.1912
  3.947   5.2221
  3.944   5.2015
  3.941   5.2118
  3.938   5.1809
  3.935   5.2118
  3.932   5.1809
  3.929   5.1603
  3.926   5.1809
  3.923   5.1397
  3.920   5.1294
  3.917   5.1500
  3.914   5.1603
  3.911   5.1603
  3.908   5.2015
  3.905   5.2221
  3.902   5.2118
  3.899   5.2221
  3.896   5.2221
  3.893   5.2530
  3.890   5.2015
  3.887   5.0985
  3.884   5.0882
  3.882   5.1294
  3.879   5.1294
  3.876   5.1500
  3.873   5.1500
  3.870   5.1088
  3.867   5.1191
  3.864   5.1500
  3.861   5.1397
  3.858   5.1603
  3.856   5.1603
  3.853   5.0676
  3.850   5.0470
  3.847   5.0264
  3.844   4.9646
  3.841   5.0573
  3.838   5.0264
  3.836   5.0058
  3.833   5.0058
  3.830   4.9440
  3.827   4.9131
  3.824   4.9440
  3.822   4.8822
  3.819   4.8307
  3.816   4.7483
  3.813   4.7174
  3.810   4.8204
  3.807   4.8410
  3.805   4.7792
  3.802   4.7174
  3.799   4.7380
  3.796   4.6762
  3.794   4.5629
  3.791   4.5732
  3.788   4.6659
  3.785   4.6144
  3.782   4.5114
  3.780   4.4805
  3.777   4.4393
  3.774   4.5114
  3.771   4.5423
  3.769   4.4702
  3.766   4.4393
  3.763   4.5011
  3.761   4.4805
  3.758   4.4805
  3.755   4.5011
  3.752   4.5217
  3.750   4.4496
  3.747   4.4393
  3.744   4.4599
  3.742   4.4496
  3.739   4.4187
  3.736   4.4599
  3.733   4.4187
  3.731   4.3878
  3.728   4.4393
  3.725   4.4599
  3.723   4.4084
  3.720   4.4393
  3.717   4.4393
  3.715   4.4187
  3.712   4.3775
  3.709   4.3363
  3.707   4.3157
  3.704   4.2745
  3.702   4.2642
  3.699   4.2848
  3.696   4.2024
  3.694   4.1303
  3.691   4.1921
  3.688   4.3054
  3.686   4.2333
  3.683   4.1303
  3.680   4.1200
  3.678   4.1303
  3.675   4.1406
  3.673   4.1921
  3.670   4.1303
  3.667   4.0273
  3.665   3.9346
  3.662   3.9449
  3.660   3.9449
  3.657   3.9140
  3.655   3.8522
  3.652   3.8110
  3.649   3.7389
  3.647   3.7904
  3.644   3.7492
  3.642   3.6977
  3.639   3.7080
  3.637   3.7595
  3.634   3.6565
  3.632   3.6050
  3.629   3.5947
  3.626   3.5844
  3.624   3.5844
  3.621   3.5741
  3.619   3.5329
  3.616   3.4711
  3.614   3.4608
  3.611   3.4505
  3.609   3.4299
  3.606   3.4093
  3.604   3.3887
  3.601   3.3578
  3.599   3.3578
  3.596   3.3372
  3.594   3.3269
  3.591   3.3372
  3.589   3.3063
  3.586   3.2857
  3.584   3.2136
  3.581   3.1930
  3.579   3.1621
  3.576   3.1724
  3.574   3.1724
  3.571   3.0488
  3.569   2.9973
  3.567   3.1312
  3.564   3.1518
  3.562   3.0900
  3.559   2.9973
  3.557   2.9561
  3.554   3.0179
  3.552   3.0900
  3.549   2.9870
  3.547   2.9046
  3.545   2.9252
  3.542   2.9355
  3.540   2.8840
  3.537   2.8325
  3.535   2.7913
  3.533   2.8634
  3.530   2.8016
  3.528   2.7913
  3.525   2.7501
  3.523   2.6780
  3.521   2.6986
  3.518   2.7604
  3.516   2.7192
  3.513   2.6677
  3.511   2.6471
  3.509   2.6574
  3.506   2.6368
  3.504   2.6368
  3.502   2.5441
  3.499   2.4205
  3.497   2.4102
  3.494   2.4823
  3.492   2.5029
  3.490   2.4514
  3.487   2.4205
  3.485   2.4102
  3.483   2.3690
  3.480   2.3896
  3.478   2.3587
  3.476   2.2969
  3.473   2.3175
  3.471   2.3793
  3.469   2.3381
  3.466   2.2969
  3.464   2.2763
  3.462   2.2248
  3.460   2.0909
  3.457   2.1012
  3.455   2.1321
  3.453   2.0909
  3.450   2.1012
  3.448   2.1527
  3.446   2.1424
  3.443   2.1733
  3.441   2.1424
  3.439   2.1939
  3.437   2.1733
  3.434   2.0394
  3.432   2.0291
  3.430   2.1218
  3.428   2.0703
  3.425   1.9982
  3.423   1.9673
  3.421   1.9467
  3.418   1.9158
  3.416   1.9570
  3.414   1.9570
  3.412   1.9364
  3.409   1.8849
  3.407   1.8849
  3.405   1.9879
  3.403   1.9982
  3.401   1.9467
  3.398   1.8849
  3.396   1.8643
  3.394   1.9261
  3.392   1.9982
  3.389   1.9673
  3.387   1.9467
  3.385   1.9467
  3.383   1.8540
  3.381   1.8334
  3.378   1.8540
  3.376   1.8334
  3.374   1.8025
  3.372   1.7819
  3.370   1.7304
  3.367   1.8128
  3.365   1.8334
  3.363   1.8025
  3.361   1.8540
  3.359   1.8231
  3.357   1.6995
  3.354   1.7304
  3.352   1.7407
  3.350   1.7304
  3.348   1.7407
  3.346   1.8231
  3.344   1.8231
  3.341   1.8437
  3.339   1.8334
  3.337   1.7407
  3.335   1.6274
  3.333   1.6171
  3.331   1.7098
  3.329   1.7407
  3.326   1.6789
  3.324   1.6686
  3.322   1.6583
  3.320   1.6274
  3.318   1.6068
  3.316   1.7613
  3.314   1.8025
  3.312   1.7098
  3.309   1.5862
  3.307   1.5656
  3.305   1.5862
  3.303   1.6171
  3.301   1.6171
  3.299   1.6274
  3.297   1.6995
  3.295   1.7304
  3.293   1.6583
  3.291   1.6686
  3.288   1.7201
  3.286   1.7407
  3.284   1.6789
  3.282   1.6377
  3.280   1.5347
  3.278   1.5038
  3.276   1.5141
  3.274   1.6274
  3.272   1.6583
  3.270   1.6583
  3.268   1.6686
  3.266   1.6583
  3.264   1.6171
  3.262   1.6171
  3.259   1.6171
  3.257   1.6068
  3.255   1.6274
  3.253   1.6686
  3.251   1.6480
  3.249   1.6274
  3.247   1.6274
  3.245   1.6274
  3.243   1.6377
  3.241   1.5965
  3.239   1.5965
  3.237   1.5862
  3.235   1.6377
  3.233   1.6789
  3.231   1.5553
  3.229   1.6583
  3.227   1.7510
  3.225   1.6583
  3.223   1.5759
  3.221   1.5862
  3.219   1.5759
  3.217   1.6377
  3.215   1.5244
  3.213   1.4420
  3.211   1.4935
  3.209   1.6274
  3.207   1.6583
  3.205   1.6583
  3.203   1.6068
  3.201   1.5656
  3.199   1.5862
  3.197   1.5450
  3.195   1.5038
  3.193   1.6068
  3.191   1.6274
  3.189   1.6892
  3.187   1.6686
  3.185   1.6274
  3.183   1.5759
  3.182   1.5862
  3.180   1.6274
  3.178   1.6583
  3.176   1.6377
  3.174   1.5965
  3.172   1.6171
  3.170   1.6480
  3.168   1.6171
  3.166   1.6274
  3.164   1.5450
  3.162   1.4935
  3.160   1.5244
  3.158   1.6171
  3.156   1.6274
  3.154   1.7201
  3.152   1.6892
  3.151   1.5656
  3.149   1.4317
  3.147   1.4729
  3.145   1.5553
  3.143   1.6068
  3.141   1.5347
  3.139   1.4935
  3.137   1.4729
  3.135   1.4523
  3.133   1.3905
  3.132   1.4111
  3.130   1.3184
  3.128   1.2360
  3.126   1.2154
  3.124   1.2566
  3.122   1.2772
  3.120   1.2875
  3.118   1.4111
  3.117   1.3905
  3.115   1.2257
  3.113   1.2669
  3.111   1.3081
  3.109   1.2772
  3.107   1.1845
  3.105   1.2566
  3.103   1.2978
  3.102   1.2154
  3.100   1.1124
  3.098   1.1227
  3.096   1.1536
  3.094   1.1845
  3.092   1.1948
  3.091   1.1124
  3.089   1.0197
  3.087   1.0506
  3.085   1.0815
  3.083   1.0815
  3.081   1.0815
  3.079   1.1845
  3.078   1.2360
  3.076   1.1742
  3.074   1.1742
  3.072   1.1227
  3.070   1.0506
  3.069   1.0609
  3.067   1.0300
  3.065   1.0918
  3.063   1.1433
  3.061   1.1536
  3.060   1.1021
  3.058   1.1124
  3.056   0.9888
  3.054   1.0300
  3.052   1.1021
  3.051   1.1227
  3.049   1.1124
  3.047   1.1330
  3.045   1.0403
  3.043   0.9682
  3.042   0.9579
  3.040   1.0094
  3.038   1.0609
  3.036   1.1433
  3.034   1.0403
  3.033   1.0609
  3.031   1.0815
  3.029   1.0712
  3.027   1.1330
  3.026   1.1124
  3.024   1.0094
  3.022   1.0403
  3.020   0.9579
  3.019   0.9991
  3.017   1.1536
  3.015   1.2463
  3.013   1.1536
  3.012   0.9785
  3.010   0.9167
  3.008   1.0918
  3.006   1.1330
  3.005   1.1536
  3.003   1.1124
  3.001   1.0609
  2.999   1.0403
  2.998   1.0609
  2.996   1.0300
  2.994   1.0300
  2.992   1.0197
  2.991   1.1433
  2.989   1.1948
  2.987   1.1021
  2.986   0.9167
  2.984   0.9373
  2.982   0.9991
  2.980   1.0712
  2.979   1.0403
  2.977   1.1639
  2.975   1.1845
  2.974   1.1330
  2.972   1.0815
  2.970   0.9991
  2.968   1.0197
  2.967   1.0403
  2.965   0.9888
  2.963   0.9682
  2.962   0.8755
  2.960   0.9167
  2.958   0.9785
  2.957   0.9888
  2.955   0.9682
  2.953   1.0403
  2.952   1.0506
  2.950   1.0609
  2.948   0.9270
  2.947   0.8961
  2.945   0.9373
  2.943   0.9476
  2.942   0.8446
  2.940   0.8858
  2.938   0.8549
  2.937   0.8858
  2.935   0.9476
  2.933   0.8446
  2.932   0.7725
  2.930   0.9167
  2.928   1.0197
  2.927   0.9476
  2.925   0.8343
  2.923   0.8446
  2.922   0.9270
  2.920   0.9785
  2.918   0.8755
  2.917   0.9270
  2.915   0.8652
  2.913   0.9785
  2.912   1.0506
  2.910   1.0300
  2.909   0.8549
  2.907   0.8343
  2.905   0.7519
  2.904   0.7416
  2.902   0.7828
  2.900   0.8137
  2.899   0.6901
  2.897   0.7313
  2.896   0.7004
  2.894   0.7004
  2.892   0.8549
  2.891   0.9682
  2.889   0.8755
  2.887   0.8137
  2.886   0.7210
  2.884   0.8652
  2.883   0.8549
  2.881   0.7519
  2.879   0.7931
  2.878   0.8652
  2.876   0.8446
  2.875   0.8240
  2.873   0.7210
  2.871   0.8549
  2.870   0.8446
  2.868   0.7725
  2.867   0.5047
  2.865   0.6695
  2.864   0.9476
  2.862   0.8755
  2.860   0.7107
  2.859   0.7313
  2.857   0.7004
  2.856   0.6798
  2.854   0.6592
  2.853   0.7519
  2.851   0.8034
  2.849   0.7107
  2.848   0.7107
  2.846   0.7622
  2.845   0.6489
  2.843   0.6695
  2.842   0.6489
  2.840   0.8755
  2.838   0.9476
  2.837   0.7210
  2.835   0.5665
  2.834   0.7725
  2.832   0.8343
  2.831   0.7519
  2.829   0.7931
  2.828   0.6283
  2.826   0.4326
  2.825   0.6798
  2.823   1.0403
  2.821   0.9785
  2.820   0.7107
  2.818   0.5974
  2.817   0.5047
  2.815   0.5974
  2.814   0.8034
  2.812   0.9064
  2.811   0.8858
  2.809   0.9167
  2.808   0.9579
  2.806   1.1536
  2.805   1.0712
  2.803   0.9785
  2.802   0.9476
  2.800   0.9579
  2.799   1.0403
  2.797   1.0609
  2.796   0.9785
  2.794   0.9373
  2.793   0.8446
  2.791   0.9785
  2.790   1.1330
  2.788   1.2051
  2.787   1.1742
  2.785   1.2154
  2.784   1.2566
  2.782   1.2463
  2.781   1.2463
  2.779   1.3493
  2.778   1.3802
  2.776   1.4420
  2.775   1.4008
  2.773   1.2566
  2.772   1.3184
  2.770   1.5965
  2.769   1.5862
  2.767   1.6068
  2.766   1.6686
  2.764   1.8334
  2.763   1.7922
  2.761   1.7510
  2.760   1.7407
  2.758   1.7613
  2.757   1.8025
  2.756   2.0497
  2.754   2.1733
  2.753   2.0600
  2.751   1.9673
  2.750   2.1218
  2.748   2.1424
  2.747   2.0909
  2.745   2.2866
  2.744   2.5853
  2.742   2.5235
  2.741   2.5338
  2.740   2.6059
  2.738   2.7707
  2.737   2.9252
  2.735   2.9664
  2.734   2.8016
  2.732   2.7913
  2.731   2.9355
  2.729   3.1930
  2.728   3.2445
  2.727   3.1930
  2.725   3.1003
  2.724   3.3681
  2.722   3.6565
  2.721   3.5741
  2.719   3.4505
  2.718   3.6153
  2.717   3.7183
  2.715   3.8728
  2.714   3.8625
  2.712   4.0479
  2.711   4.1612
  2.709   4.1818
  2.708   4.0891
  2.707   4.2024
  2.705   4.2951
  2.704   4.3775
  2.702   4.3672
  2.701   4.4290
  2.700   4.4290
  2.698   4.4702
  2.697   4.4084
  2.695   4.5835
  2.694   4.8204
  2.693   4.8616
  2.691   4.8513
  2.690   4.8513
  2.688   4.8307
  2.687   5.0264
  2.686   5.0264
  2.684   5.0367
  2.683   5.0882
  2.681   5.2221
  2.680   5.1088
  2.679   5.0470
  2.677   5.0882
  2.676   5.3148
  2.675   5.4796
  2.673   5.5105
  2.672   5.5208
  2.670   5.4590
  2.669   5.1191
  2.668   5.2633
  2.666   5.4590
  2.665   5.4899
  2.664   5.5311
  2.662   5.7268
  2.661   5.7783
  2.659   5.6547
  2.658   5.6753
  2.657   5.9431
  2.655   6.0255
  2.654   5.9431
  2.653   5.8710
  2.651   5.9534
  2.650   5.9637
  2.649   5.9225
  2.647   5.9019
  2.646   6.1491
  2.645   6.2830
  2.643   6.1903
  2.642   6.0770
  2.640   5.9740
  2.639   5.9019
  2.638   5.9225
  2.636   6.0358
  2.635   6.1594
  2.634   6.2315
  2.632   6.2521
  2.631   6.1800
  2.630   6.1800
  2.628   6.2212
  2.627   6.4169
  2.626   6.4066
  2.624   6.3345
  2.623   6.2418
  2.622   6.2418
  2.620   6.4478
  2.619   6.7053
  2.618   6.3963
  2.617   6.1388
  2.615   6.0049
  2.614   6.2727
  2.613   6.4066
  2.611   6.4066
  2.610   6.3139
  2.609   6.4169
  2.607   6.2933
  2.606   6.2624
  2.605   6.2830
  2.603   6.2109
  2.602   6.0667
  2.601   6.1491
  2.599   6.2624
  2.598   6.3551
  2.597   6.3242
  2.596   6.5302
  2.594   6.5611
  2.593   6.4581
  2.592   6.2109
  2.590   6.1697
  2.589   6.2624
  2.588   6.3551
  2.586   6.3963
  2.585   6.1285
  2.584   5.9328
  2.583   6.1079
  2.581   6.2212
  2.580   6.2933
  2.579   6.1594
  2.577   6.3345
  2.576   6.3448
  2.575   6.0873
  2.574   5.9328
  2.572   6.2315
  2.571   6.2933
  2.570   6.2006
  2.569   5.9019
  2.567   5.8813
  2.566   5.8504
  2.565   5.7371
  2.563   5.5105
  2.562   5.6238
  2.561   5.6238
  2.560   5.8195
  2.558   5.9431
  2.557   6.0461
  2.556   5.9637
  2.555   5.7989
  2.553   5.9328
  2.552   6.1800
  2.551   6.0358
  2.550   5.7886
  2.548   5.8813
  2.547   6.1079
  2.546   6.0461
  2.545   6.1079
  2.543   6.1697
  2.542   6.2212
  2.541   6.0770
  2.540   6.0152
  2.538   6.0255
  2.537   6.1594
  2.536   6.2315
  2.535   6.3757
  2.533   6.4478
  2.532   6.4066
  2.531   6.2418
  2.530   6.2315
  2.528   6.3757
  2.527   6.5302
  2.526   6.4478
  2.525   6.4581
  2.524   6.7156
  2.522   6.9834
  2.521   6.8495
  2.520   6.8907
  2.519   7.0761
  2.517   7.0555
  2.516   6.8083
  2.515   6.9010
  2.514   7.0349
  2.513   7.0967
  2.511   6.9113
  2.510   7.0967
  2.509   7.2306
  2.508   7.2100
  2.506   7.0967
  2.505   6.9834
  2.504   7.0246
  2.503   7.3336
  2.502   7.3027
  2.500   7.3954
  2.500   7.3954
  2.498   7.4495
  2.496   7.2350
  2.494   7.2346
  2.492   7.4203
  2.490   7.2511
  2.488   7.5002
  2.486   7.0516
  2.484   7.5765
  2.482   7.3149
  2.480   7.0915
  2.478   7.4356
  2.476   7.1788
  2.474   7.2216
  2.472   7.4194
  2.470   7.0786
  2.468   6.9373
  2.466   6.9522
  2.464   7.0296
  2.462   7.0236
  2.460   6.8040
  2.458   6.9097
  2.456   6.7850
  2.454   6.7147
  2.452   6.6850
  2.450   6.6946
  2.448   6.7671
  2.446   6.5617
  2.444   6.5290
  2.442   6.6079
  2.440   6.5354
  2.438   6.6646
  2.436   6.6897
  2.434   6.7101
  2.432   6.6618
  2.430   6.7187
  2.428   6.8492
  2.426   6.8874
  2.424   7.0039
  2.422   7.1771
  2.420   7.4396
  2.418   7.4447
  2.416   7.5649
  2.414   7.6134
  2.412   7.8910
  2.410   8.1445
  2.408   8.1065
  2.406   8.2710
  2.404   8.5716
  2.402   8.7066
  2.400   8.7947
  2.398   9.0607
  2.396   9.1526
  2.394   9.4082
  2.392   9.5509
  2.390   9.5442
  2.388   9.8599
  2.386   9.9405
  2.384  10.0413
  2.382  10.4020
  2.380  10.3758
  2.378  10.6073
  2.376  10.7509
  2.374  10.8488
  2.372  11.1040
  2.370  11.3025
  2.368  11.4180
  2.366  11.7237
  2.364  11.6803
  2.362  11.9482
  2.360  12.0234
  2.358  12.3583
  2.356  12.5414
  2.354  12.8001
  2.352  12.8775
  2.350  13.1317
  2.348  13.2716
  2.346  13.4788
  2.344  13.7204
  2.342  13.8854
  2.340  14.0589
  2.338  14.2269
  2.336  14.4634
  2.334  14.6069
  2.332  14.8883
  2.330  15.0155
  2.328  15.1838
  2.326  15.3100
  2.324  15.5181
  2.322  15.6849
  2.320  15.8833
  2.318  16.0803
  2.316  16.2189
  2.314  16.3584
  2.312  16.5517
  2.310  16.6746
  2.308  16.8412
  2.306  16.9277
  2.304  17.0800
  2.302  17.2950
  2.300  17.4073
  2.298  17.4706
  2.296  17.6399
  2.294  17.7760
  2.292  17.9368
  2.290  18.0461
  2.288  18.2054
  2.286  18.1880
  2.284  18.3919
  2.282  18.5269
  2.280  18.5080
  2.278  18.6497
  2.276  18.7831
  2.274  18.8437
  2.272  18.8644
  2.270  18.9161
  2.268  19.0131
  2.266  19.0907
  2.264  19.2103
  2.262  19.2864
  2.260  19.3432
  2.258  19.3229
  2.256  19.3710
  2.254  19.4798
  2.252  19.5788
  2.250  19.6061
  2.248  19.5463
  2.246  19.5344
  2.244  19.6167
  2.242  19.6576
  2.240  19.7138
  2.238  19.7539
  2.236  19.7233
  2.234  19.6146
  2.232  19.5980
  2.230  19.6404
  2.228  19.6571
  2.226  19.6334
  2.224  19.5524
  2.222  19.5160
  2.220  19.5160
  2.218  19.3948
  2.216  19.3693
  2.214  19.4446
  2.212  19.3560
  2.210  19.3551
  2.208  19.3480
  2.206  19.2009
  2.204  19.2314
  2.202  19.2184
  2.200  19.0671
  2.198  19.0343
  2.196  19.0485
  2.194  19.0130
  2.192  18.9919
  2.190  18.8827
  2.188  18.8302
  2.186  18.7568
  2.184  18.7595
  2.182  18.6281
  2.180  18.4586
  2.178  18.4034
  2.176  18.3219
  2.174  18.2852
  2.172  18.1605
  2.170  18.0222
  2.168  17.9386
  2.166  17.8507
  2.164  17.7713
  2.162  17.5613
  2.160  17.3901
  2.158  17.2557
  2.156  17.1253
  2.154  17.0744
  2.152  16.9518
  2.150  16.6778
  2.148  16.4949
  2.146  16.3659
  2.144  16.1987
  2.142  16.0492
  2.140  15.8573
  2.138  15.6663
  2.136  15.5467
  2.134  15.4030
  2.132  15.1884
  2.130  15.0491
  2.128  14.8632
  2.126  14.7444
  2.124  14.6640
  2.122  14.4970
  2.120  14.3062
  2.118  14.1793
  2.116  14.0788
  2.114  14.0130
  2.112  13.9387
  2.110  13.8057
  2.108  13.5890
  2.106  13.5806
  2.104  13.5754
  2.102  13.5230
  2.100  13.4764
  2.098  13.4847
  2.096  13.3282
  2.094  13.3313
  2.092  13.3503
  2.090  13.3525
  2.088  13.2786
  2.086  13.3368
  2.084  13.3537
  2.082  13.3224
  2.080  13.2748
  2.078  13.3175
  2.076  13.3117
  2.074  13.3893
  2.072  13.4243
  2.070  13.4161
  2.068  13.4524
  2.066  13.4432
  2.064  13.4212
  2.062  13.4297
  2.060  13.4575
  2.058  13.4612
  2.056  13.4613
  2.054  13.4850
  2.052  13.3645
  2.050  13.3544
  2.048  13.3516
  2.046  13.3455
  2.044  13.1977
  2.042  13.1836
  2.040  13.1488
  2.038  13.0140
  2.036  12.9149
  2.034  12.7975
  2.032  12.8002
  2.030  12.7053
  2.028  12.5765
  2.026  12.4847
  2.024  12.3252
  2.022  12.2191
  2.020  12.1744
  2.018  11.9728
  2.016  11.9639
  2.014  11.7333
  2.012  11.7553
  2.010  11.6685
  2.008  11.5755
  2.006  11.4950
  2.004  11.3889
  2.002  11.3568
  2.000  11.1998
  1.998  11.2068
  1.996  11.0395
  1.994  10.9617
  1.992  10.8741
  1.990  10.8098
  1.988  10.7192
  1.986  10.7373
  1.984  10.7503
  1.982  10.6557
  1.980  10.6511
  1.978  10.5734
  1.976  10.5932
  1.974  10.6389
  1.972  10.5416
  1.970  10.5519
  1.968  10.6386
  1.966  10.5628
  1.964  10.3784
  1.962  10.4361
  1.960  10.3011
  1.958  10.3505
  1.956  10.3122
  1.954  10.3505
  1.952  10.4381
  1.950  10.4240
  1.948  10.6845
  1.946  10.7317
  1.944  10.9523
  1.942  11.0725
  1.940  11.4205
  1.938  11.6488
  1.936  11.9554
  1.934  12.2847
  1.932  12.6445
  1.930  12.9234
  1.928  13.2532
  1.926  13.6046
  1.924  14.0896
  1.922  14.4007
  1.920  14.7899
  1.918  15.1982
  1.916  15.6322
  1.914  15.9645
  1.912  16.5228
  1.910  16.8885
  1.908  17.3251
  1.906  17.9031
  1.904  18.2802
  1.902  18.8206
  1.900  19.1169
  1.898  19.6205
  1.896  19.8327
  1.894  20.2239
  1.892  20.6732
  1.890  21.0052
  1.888  21.2409
  1.886  21.4749
  1.884  21.6878
  1.882  22.0350
  1.880  22.2563
  1.878  22.5174
  1.876  22.6170
  1.874  22.8537
  1.872  23.0756
  1.870  23.1265
  1.868  23.2256
  1.866  23.2895
  1.864  23.2447
  1.862  23.2962
  1.860  23.4986
  1.858  23.3710
  1.856  23.3492
  1.854  23.2831
  1.852  23.3993
  1.850  23.2289
  1.848  23.1711
  1.846  23.0298
  1.844  23.0741
  1.842  22.9267
  1.840  22.9814
  1.838  22.7283
  1.836  22.8090
  1.834  22.5684
  1.832  22.4701
  1.830  22.4795
  1.828  22.2259
  1.826  22.0979
  1.824  22.0922
  1.822  21.8972
  1.820  21.7769
  1.818  21.5939
  1.816  21.5864
  1.814  21.4669
  1.812  21.3272
  1.810  21.1620
  1.808  21.0261
  1.806  21.0097
  1.804  20.7968
  1.802  20.6234
  1.800  20.8103
  1.798  20.6672
  1.796  20.6554
  1.794  20.5774
  1.792  20.6720
  1.790  20.6041
  1.788  20.6649
  1.786  20.7005
  1.784  20.7734
  1.782  20.6216
  1.780  20.7503
  1.778  20.6555
  1.776  20.7233
  1.774  20.7157
  1.772  20.6063
  1.770  20.6839
  1.768  20.5548
  1.766  20.6159
  1.764  20.5665
  1.762  20.6427
  1.760  20.6037
  1.758  20.5887
  1.756  20.4855
  1.754  20.4247
  1.752  20.5240
  1.750  20.3593
  1.748  20.2316
  1.746  20.3253
  1.744  20.2628
  1.742  20.1704
  1.740  20.0658
  1.738  20.1136
  1.736  19.9805
  1.734  20.1078
  1.732  20.1189
  1.730  19.9180
  1.728  20.0194
  1.726  20.0398
  1.724  19.8673
  1.722  19.9427
  1.720  19.9365
  1.718  19.8811
  1.716  19.9132
  1.714  19.9436
  1.712  19.8815
  1.710  19.8506
  1.708  19.8581
  1.706  19.9106
  1.704  19.8391
  1.702  19.9214
  1.700  19.9168
  1.698  19.8791
  1.696  19.8545
  1.694  19.8102
  1.692  19.8383
  1.690  19.7292
  1.688  19.9191
  1.686  19.9547
  1.684  20.0409
  1.682  19.9571
  1.680  20.1016
  1.678  20.1259
  1.676  20.0942
  1.674  20.1424
  1.672  20.1845
  1.670  20.2478
  1.668  20.3344
  1.666  20.4460
  1.664  20.5049
  1.662  20.5278
  1.660  20.5633
  1.658  20.6548
  1.656  20.6078
  1.654  20.6954
  1.652  20.7628
  1.650  20.8166
  1.648  20.8301
  1.646  20.8407
  1.644  20.8878
  1.642  20.8797
  1.640  20.9230
  1.638  21.0664
  1.636  21.1840
  1.634  21.1511
  1.632  21.3195
  1.630  21.2710
  1.628  21.2031
  1.626  21.3280
  1.624  21.4357
  1.622  21.4928
  1.620  21.6074
  1.618  21.6385
  1.616  21.6818
  1.614  21.7548
  1.612  21.9326
  1.610  22.0371
  1.608  22.0334
  1.606  22.0664
  1.604  22.1826
  1.602  22.2090
  1.600  22.4305
  1.598  22.6087
  1.596  22.5489
  1.594  22.6625
  1.592  22.6710
  1.590  22.6722
  1.588  22.7306
  1.586  22.7690
  1.584  22.8661
  1.582  22.9467
  1.580  22.9674
  1.578  23.0332
  1.576  23.0242
  1.574  22.9226
  1.572  22.9234
  1.570  22.9734
  1.568  22.9298
  1.566  22.8240
  1.564  22.7630
  1.562  22.7064
  1.560  22.6378
  1.558  22.5960
  1.556  22.5525
  1.554  22.4751
  1.552  22.4764
  1.550  22.6097
  1.548  22.6557
  1.546  22.7513
  1.544  22.8774
  1.542  22.8207
  1.540  22.8313
  1.538  22.7740
  1.536  22.7124
  1.534  22.7118
  1.532  22.7729
  1.530  22.7959
  1.528  22.6495
  1.526  22.5916
  1.524  22.5268
  1.522  22.4544
  1.520  22.4767
  1.518  22.5331
  1.516  22.4225
  1.514  22.3761
  1.512  22.4501
  1.510  22.3318
  1.508  22.2046
  1.506  22.1230
  1.504  22.0945
  1.502  22.0089
  1.500  22.0044
  1.498  21.8635
  1.496  21.7932
  1.494  21.8461
  1.492  21.8468
  1.490  21.8261
  1.488  21.7930
  1.486  21.7208
  1.484  21.7243
  1.482  21.7121
  1.480  21.6759
  1.478  21.6089
  1.476  21.6256
  1.474  21.6210
  1.472  21.7022
  1.470  21.6156
  1.468  21.7292
  1.466  21.7738
  1.464  21.9146
  1.462  22.1155
  1.460  22.2810
  1.458  22.4441
  1.456  22.6062
  1.454  23.0895
  1.452  23.3941
  1.450  23.9121
  1.448  24.5815
  1.446  25.0946
  1.444  25.6132
  1.442  26.2861
  1.440  26.9183
  1.438  27.6636
  1.436  28.4037
  1.434  28.9261
  1.432  29.5864
  1.430  30.4203
  1.428  31.1111
  1.426  31.5851
  1.424  32.1706
  1.422  32.7951
  1.420  33.1720
  1.418  33.8051
  1.416  34.2008
  1.414  34.5227
  1.412  34.8987
  1.410  35.2010
  1.408  35.3985
  1.406  35.7229
  1.404  35.8916
  1.402  36.1303
  1.400  36.3637
  1.398  36.4461
  1.396  36.6796
  1.394  36.7883
  1.392  36.8753
  1.390  37.0113
  1.388  36.9731
  1.386  37.2551
  1.384  37.3353
  1.382  37.2787
  1.380  37.5094
  1.378  37.5454
  1.376  37.6623
  1.374  37.6623
  1.372  37.6234
  1.370  37.8429
  1.368  37.8632
  1.366  37.9688
  1.364  38.2373
  1.362  38.1896
  1.360  38.2474
  1.358  38.4421
  1.356  38.6380
  1.354  38.6450
  1.352  38.8727
  1.350  38.8148
  1.348  38.9733
  1.346  39.2529
  1.344  39.3456
  1.342  39.5625
  1.340  39.5689
  1.338  39.6926
  1.336  39.8872
  1.334  40.0117
  1.332  40.0379
  1.330  40.1630
  1.328  40.2051
  1.326  40.2899
  1.324  40.4631
  1.322  40.5505
  1.320  40.5903
  1.318  40.6311
  1.316  40.6528
  1.314  40.7978
  1.312  40.8521
  1.310  40.9261
  1.308  41.0793
  1.306  40.8010
  1.304  40.9419
  1.302  40.9169
  1.300  40.9019
  1.298  40.9303
  1.296  40.8301
  1.294  40.8317
  1.292  40.9557
  1.290  40.9637
  1.288  40.9097
  1.286  40.8233
  1.284  40.8209
  1.282  40.7550
  1.280  40.8720
  1.278  40.8358
  1.276  40.6976
  1.274  40.6201
  1.272  40.6929
  1.270  40.5936
  1.268  40.6492
  1.266  40.5472
  1.264  40.6009
  1.262  40.5355
  1.260  40.5143
  1.258  40.5469
  1.256  40.4394
  1.254  40.5493
  1.252  40.5266
  1.250  40.5446
  1.248  40.5690
  1.246  40.4986
  1.244  40.4426
  1.242  40.5849
  1.240  40.4797
  1.238  40.5080
  1.236  40.5006
  1.234  40.5133
  1.232  40.5621
  1.230  40.5625
  1.228  40.3774
  1.226  40.5630
  1.224  40.7133
  1.222  40.4018
  1.220  40.4347
  1.218  40.4544
  1.216  40.4531
  1.214  40.4431
  1.212  40.4399
  1.210  40.5158
  1.208  40.4375
  1.206  40.4377
  1.204  40.4419
  1.202  40.3658
  1.200  40.4964
  1.198  40.5331
  1.196  40.4878
  1.194  40.5039
  1.192  40.4253
  1.190  40.5871
  1.188  40.4967
  1.186  40.5936
  1.184  40.4941
  1.182  40.8200
  1.180  40.7537
  1.178  40.8618
  1.176  41.0086
  1.174  41.2405
  1.172  41.3432
  1.170  41.4539
  1.168  41.7112
  1.166  41.7737
  1.164  41.7373
  1.162  41.8778
  1.160  42.0976
  1.158  42.1061
  1.156  42.1667
  1.154  42.2662
  1.152  42.3310
  1.150  42.3435
  1.148  42.3336
  1.146  42.3412
  1.144  42.3688
  1.142  42.4198
  1.140  42.4510
  1.138  42.3833
  1.136  42.3017
  1.134  42.3958
  1.132  42.4026
  1.130  42.3086
  1.128  42.3226
  1.126  42.3056
  1.124  42.4206
  1.122  42.3941
  1.120  42.3384
  1.118  42.3964
  1.116  42.3851
  1.114  42.3873
  1.112  42.3857
  1.110  42.3622
  1.108  42.3105
  1.106  42.3179
  1.104  42.2976
  1.102  42.3086
  1.100  42.2242
  1.098  42.2886
  1.096  42.3313
  1.094  42.2684
  1.092  42.3373
  1.090  42.3250
  1.088  42.1919
  1.086  42.1413
  1.084  42.2372
  1.082  42.1881
  1.080  42.2271
  1.078  42.1623
  1.076  42.1427
  1.074  42.0268
  1.072  41.9591
  1.070  41.9484
  1.068  41.9673
  1.066  42.0586
  1.064  41.9771
  1.062  41.9264
  1.060  41.8832
  1.058  41.8939
  1.056  41.9109
  1.054  41.8806
  1.052  41.8488
  1.050  41.7715
  1.048  41.7522
  1.046  41.7516
  1.044  41.7293
  1.042  41.7010
  1.040  41.6457
  1.038  41.6013
  1.036  41.5848
  1.034  41.5127
  1.032  41.5724
  1.030  41.5583
  1.028  41.5341
  1.026  41.4310
  1.024  41.4105
  1.022  41.4316
  1.020  41.2750
  1.018  41.2903
  1.016  41.1827
  1.014  41.1312
  1.012  41.0939
  1.010  41.0744
  1.008  41.0315
  1.006  41.0614
  1.004  41.0445
  1.002  41.0588
  1.000  40.9999
  0.998  40.9932
  0.996  40.9935
  0.994  40.9745
  0.992  40.9747
  0.990  40.9458
  0.988  41.0403
  0.986  41.0921
  0.984  41.1107
  0.982  41.1452
  0.980  41.2006
  0.978  41.1583
  0.976  41.2179
  0.974  41.3253
  0.972  41.2559
  0.970  41.2570
  0.968  41.3408
  0.966  41.2520
  0.964  41.2664
  0.962  41.3643
  0.960  41.3999
  0.958  41.3768
  0.956  41.2680
  0.954  41.2923
  0.952  41.3482
  0.950  41.4258
  0.948  41.3780
  0.946  41.3640
  0.944  41.3626
  0.942  41.3053
  0.940  41.3303
  0.938  41.2818
  0.936  41.2978
  0.934  41.1989
  0.932  41.1106
  0.930  41.2524
  0.928  41.2417
  0.926  41.2136
  0.924  41.2639
  0.922  41.2040
  0.920  41.0916
  0.918  41.1339
  0.916  41.1193
  0.914  41.1069
  0.912  41.0826
  0.910  41.1388
  0.908  41.0630
  0.906  41.0019
  0.904  41.0063
  0.902  40.9896
  0.900  40.9645
  0.898  41.0387
  0.896  41.1650
  0.894  41.0999
  0.892  41.0904
  0.890  41.1475
  0.888  41.0053
  0.886  40.9773
  0.884  40.8244
  0.882  40.9423
  0.880  40.8046
  0.878  40.9831
  0.876  41.0315
  0.874  40.9699
  0.872  41.0984
  0.870  41.0309
  0.868  40.8976
  0.866  40.7950
  0.864  40.8694
  0.862  41.0000
  0.860  40.9330
  0.858  41.1934
  0.856  41.3687
  0.854  41.3323
  0.852  41.3421
  0.850  41.3231
  0.848  41.2800
  0.846  41.2578
  0.844  41.2522
  0.842  41.2473
  0.840  41.2372
  0.838  41.2169
  0.836  41.2123
  0.834  41.1857
  0.832  41.1576
  0.830  41.1230
  0.828  41.0625
  0.826  41.0657
  0.824  41.0603
  0.822  41.0310
  0.820  41.0296
  0.818  40.9783
  0.816  40.9381
  0.814  40.9089
  0.812  40.9069
  0.810  40.8637
  0.808  40.8336
  0.806  40.7851
  0.804  40.7984
  0.802  40.7671
  0.800  40.7091
  0.798  40.6893
  0.796  40.6495
  0.794  40.6332
  0.792  40.5738
  0.790  40.5437
  0.788  40.4998
  0.786  40.4707
  0.784  40.4497
  0.782  40.4269
  0.780  40.3769
  0.778  40.3542
  0.776  40.3479
  0.774  40.2691
  0.772  40.2261
  0.770  40.2053
  0.768  40.1600
  0.766  40.1446
  0.764  40.1134
  0.762  40.0761
  0.760  40.0382
  0.758  40.0212
  0.756  39.9769
  0.754  39.9547
  0.752  39.9109
  0.750  39.8844
  0.748  39.8874
  0.746  39.8483
  0.744  39.7761
  0.742  39.7854
  0.740  39.7297
  0.738  39.7269
  0.736  39.6820
  0.734  39.6717
  0.732  39.6342
  0.730  39.6118
  0.728  39.5789
  0.726  39.5430
  0.724  39.5142
  0.722  39.4960
  0.720  39.4856
  0.718  39.4609
  0.716  39.4191
  0.714  39.4050
  0.712  39.3515
  0.710  39.3477
  0.708  39.3390
  0.706  39.2741
  0.704  39.2707
  0.702  39.2491
  0.700  39.2143
  0.698  39.1833
  0.696  39.1829
  0.694  39.1277
  0.692  39.1019
  0.690  39.0728
  0.688  39.0583
  0.686  39.0506
  0.684  39.0311
  0.682  38.9836
  0.680  39.0126
  0.678  38.9671
  0.676  38.9471
  0.674  38.9387
  0.672  38.8996
  0.670  38.8859
  0.668  38.8518
  0.666  38.8311
  0.664  38.8313
  0.662  38.8161
  0.660  38.7913
  0.658  38.7677
  0.656  38.7382
  0.654  38.7225
  0.652  38.7257
  0.650  38.7043
  0.648  38.6729
  0.646  38.6461
  0.644  38.6365
  0.642  38.6056
  0.640  38.5954
  0.638  38.5742
  0.636  38.5571
  0.634  38.5233
  0.632  38.4963
  0.630  38.4618
  0.628  38.4652
  0.626  38.4348
  0.624  38.4092
  0.622  38.3871
  0.620  38.3674
  0.618  38.3400
  0.616  38.3068
  0.614  38.3044
  0.612  38.2646
  0.610  38.2323
  0.608  38.2208
  0.606  38.2016
  0.604  38.1655
  0.602  38.1268
  0.600  38.1009
  0.598  38.0612
  0.596  38.0228
  0.594  38.0184
  0.592  37.9781
  0.590  37.9556
  0.588  37.9179
  0.586  37.8786
  0.584  37.8379
  0.582  37.8233
  0.580  37.7821
  0.578  37.7561
  0.576  37.6972
  0.574  37.6797
  0.572  37.6333
  0.570  37.5950
  0.568  37.5634
  0.566  37.5053
  0.564  37.4748
  0.562  37.4470
  0.560  37.4007
  0.558  37.3732
  0.556  37.3045
  0.554  37.2562
  0.552  37.2228
  0.550  37.1739
  0.548  37.1507
  0.546  37.1112
  0.544  37.0515
  0.542  37.0084
  0.540  36.9665
  0.538  36.9187
  0.536  36.8799
  0.534  36.8392
  0.532  36.7901
  0.530  36.7381
  0.528  36.6983
  0.526  36.6497
  0.524  36.5922
  0.522  36.5349
  0.520  36.4910
  0.518  36.4294
  0.516  36.3812
  0.514  36.3222
  0.512  36.2593
  0.510  36.1935
  0.508  36.1300
  0.506  36.0775
  0.504  36.0126
  0.502  35.9419
  0.500  35.8853
  0.498  35.8357
  0.496  35.7803
  0.494  35.7251
  0.492  35.6648
  0.490  35.6122
  0.488  35.5535
  0.486  35.4993
  0.484  35.4466
  0.482  35.3979
  0.480  35.3285
  0.478  35.2718
  0.476  35.2127
  0.474  35.1515
  0.472  35.1014
  0.470  35.0189
  0.468  34.9604
  0.466  34.8821
  0.464  34.8094
  0.462  34.7515
  0.460  34.6746
  0.458  34.5932
  0.456  34.5073
  0.454  34.4199
  0.452  34.3187
  0.450  34.2164
  0.448  34.1291
  0.446  34.0338
  0.444  33.9566
  0.442  33.8701
  0.440  33.7783
  0.438  33.6775
  0.436  33.5716
  0.434  33.4669
  0.432  33.3671
  0.430  33.2712
  0.428  33.1571
  0.426  33.0416
  0.424  32.9377
  0.422  32.8378
  0.420  32.7237
  0.418  32.6087
  0.416  32.5021
  0.414  32.4032
  0.412  32.2894
  0.410  32.1721
  0.408  32.0715
  0.406  31.9718
  0.404  31.8707
  0.402  31.7640
  0.400  31.6578
