Name: Eugsterite Na4Ca(SO4)3 * 2H2O
Type: Mineral
Class: Sulfate
Subclass:
Particle Size: Unsieved coarse powder
Sample No.: None
Owner: USGS
Wavelength range: 0.40 - 14.05 um
Origin: Evaporation of Na2SO4 + CaSO4 solution at 70 deg. C

Description: Eugsterite, sample contained a small amount of gypsum





Measurement: Directional Hemispherical Reflectance
First Column: X
Second Column: Y
X Units: Wavelength (micrometers)
Y Units: Reflectance (percent)
First X Value: 14.05105
Last X Value: 0.40000
Number of X Values: 2756
Additional Information: None

 14.051   3.1930
 14.013   3.1518
 13.975   3.1312
 13.938   3.1827
 13.900   3.3063
 13.863   3.3372
 13.826   3.5329
 13.790   3.5638
 13.753   3.5844
 13.717   3.6462
 13.680   3.8213
 13.644   3.8213
 13.609   3.9655
 13.573   4.0170
 13.538   4.0582
 13.502   4.0376
 13.467   4.0685
 13.432   4.0479
 13.398   4.0788
 13.363   4.1097
 13.329   4.1715
 13.295   4.2024
 13.261   4.2951
 13.227   4.2642
 13.193   4.3054
 13.160   4.3260
 13.126   4.3878
 13.093   4.4084
 13.060   4.4599
 13.027   4.4805
 12.995   4.5320
 12.962   4.4393
 12.930   4.3878
 12.898   4.3878
 12.866   4.4599
 12.834   4.4908
 12.802   4.5732
 12.771   4.6041
 12.739   4.7071
 12.708   4.7689
 12.677   4.8822
 12.646   4.9852
 12.616   5.0264
 12.585   5.0470
 12.554   5.2530
 12.524   5.3766
 12.494   5.4899
 12.464   5.6135
 12.434   5.7577
 12.404   5.8298
 12.375   6.0049
 12.345   6.1388
 12.316   6.3551
 12.287   6.5199
 12.258   6.6435
 12.229   6.7877
 12.200   6.9628
 12.171   7.0452
 12.143   7.1585
 12.115   7.2615
 12.086   7.4675
 12.058   7.6014
 12.030   7.7559
 12.002   7.9001
 11.975   8.0752
 11.947   8.1885
 11.920   8.3327
 11.892   8.3739
 11.865   8.4048
 11.838   8.4048
 11.811   8.6005
 11.784   8.7550
 11.757   8.8477
 11.731   8.8889
 11.704   8.9919
 11.678   8.9816
 11.652   8.9610
 11.626   8.9507
 11.600   9.0434
 11.574   9.0228
 11.548   8.9610
 11.522   8.8271
 11.497   8.6932
 11.471   8.3430
 11.446   8.0958
 11.421   8.1267
 11.396   8.3636
 11.371   8.3842
 11.346   8.2194
 11.321   8.2606
 11.297   8.4975
 11.272   8.7241
 11.248   8.9713
 11.223   9.0537
 11.199   9.1773
 11.175   9.2288
 11.151   9.2391
 11.127   9.1670
 11.103   9.1567
 11.079   9.1979
 11.056   9.2391
 11.032   9.2391
 11.009   9.3524
 10.985   9.3730
 10.962   9.3318
 10.939   9.2494
 10.916   9.1979
 10.893   9.1258
 10.870   9.1155
 10.848   8.9919
 10.825   8.8992
 10.802   8.7859
 10.780   8.6314
 10.758   8.4872
 10.735   8.4666
 10.713   8.4460
 10.691   8.4769
 10.669   8.4254
 10.647   8.3636
 10.625   8.2297
 10.604   8.1370
 10.582   8.0340
 10.560   7.9516
 10.539   7.8177
 10.518   7.7044
 10.496   7.6014
 10.475   7.5499
 10.454   7.3851
 10.433   7.2306
 10.412   7.0761
 10.391   6.9525
 10.370   6.8186
 10.350   6.7877
 10.329   6.6332
 10.309   6.5096
 10.288   6.3654
 10.268   6.1697
 10.247   5.8092
 10.227   5.4281
 10.207   5.2530
 10.187   5.2530
 10.167   5.1088
 10.147   4.9646
 10.127   4.7998
 10.108   4.7174
 10.088   4.7483
 10.068   4.8307
 10.049   4.7895
 10.029   4.8204
 10.010   4.7895
  9.991   4.7586
  9.972   4.7071
  9.952   4.7174
  9.933   4.6968
  9.914   4.7277
  9.895   4.7277
  9.877   4.8822
  9.858   5.0161
  9.839   5.0676
  9.821   5.0676
  9.802   5.1397
  9.783   5.0882
  9.765   5.0676
  9.747   5.0882
  9.728   5.0882
  9.710   5.0779
  9.692   5.1191
  9.674   5.0573
  9.656   5.0058
  9.638   4.9234
  9.620   4.8822
  9.602   4.8410
  9.585   4.7998
  9.567   4.6968
  9.549   4.6762
  9.532   4.5938
  9.514   4.5629
  9.497   4.4702
  9.479   4.4084
  9.462   4.3157
  9.445   4.3672
  9.428   4.3260
  9.411   4.2951
  9.394   4.2642
  9.377   4.2848
  9.360   4.2642
  9.343   4.2539
  9.326   4.2539
  9.309   4.3054
  9.293   4.3363
  9.276   4.4084
  9.259   4.4290
  9.243   4.4908
  9.226   4.5320
  9.210   4.5526
  9.194   4.6247
  9.178   4.7792
  9.161   4.9543
  9.145   5.1500
  9.129   5.3045
  9.113   5.5311
  9.097   5.8092
  9.081   6.2315
  9.065   6.7156
  9.049   7.2821
  9.034   7.8074
  9.018   8.2709
  9.002   8.6623
  8.987   9.0846
  8.971   9.4966
  8.956   9.9601
  8.940  10.5163
  8.925  11.2064
  8.909  11.9583
  8.894  12.7205
  8.879  13.2973
  8.864  13.7402
  8.849  14.0183
  8.834  14.2346
  8.819  14.2861
  8.804  14.2346
  8.789  14.1625
  8.774  14.1316
  8.759  14.0389
  8.744  13.9050
  8.730  13.7402
  8.715  13.6681
  8.700  13.5445
  8.686  13.4518
  8.671  13.3797
  8.657  13.3179
  8.642  13.2561
  8.628  13.1840
  8.614  13.0810
  8.599  13.0707
  8.585  13.0398
  8.571  13.0501
  8.557  13.0913
  8.543  13.2355
  8.529  13.3694
  8.515  13.5342
  8.501  13.7402
  8.487  13.9565
  8.473  14.1213
  8.459  14.2552
  8.445  14.1213
  8.431  13.7711
  8.418  13.3179
  8.404  12.8441
  8.391  12.3806
  8.377  11.9892
  8.363  11.5772
  8.350  11.2373
  8.337  10.9077
  8.323  10.6193
  8.310  10.1352
  8.297   9.3730
  8.283   8.3842
  8.270   7.3233
  8.257   6.2727
  8.244   5.3972
  8.231   4.6453
  8.218   3.9964
  8.205   3.4093
  8.192   3.0076
  8.179   2.6471
  8.166   2.3072
  8.153   2.0394
  8.140   1.8849
  8.128   1.7304
  8.115   1.6068
  8.102   1.4832
  8.090   1.3802
  8.077   1.2463
  8.064   1.2051
  8.052   1.1021
  8.039   0.9785
  8.027   0.8652
  8.015   0.8034
  8.002   0.7416
  7.990   0.7416
  7.978   0.7107
  7.965   0.6901
  7.953   0.6489
  7.941   0.6180
  7.929   0.5459
  7.917   0.5253
  7.905   0.5459
  7.893   0.5768
  7.881   0.5150
  7.869   0.5562
  7.857   0.5768
  7.845   0.5665
  7.833   0.5665
  7.821   0.5974
  7.809   0.6283
  7.798   0.6283
  7.786   0.5871
  7.774   0.6489
  7.763   0.6901
  7.751   0.6901
  7.739   0.6901
  7.728   0.7210
  7.716   0.7416
  7.705   0.8137
  7.694   0.8446
  7.682   0.8137
  7.671   0.7828
  7.659   0.8549
  7.648   0.9064
  7.637   0.9682
  7.626   0.9991
  7.614   1.1021
  7.603   1.1330
  7.592   1.1845
  7.581   1.2257
  7.570   1.2669
  7.559   1.3287
  7.548   1.4008
  7.537   1.4317
  7.526   1.5038
  7.515   1.5347
  7.504   1.6171
  7.493   1.6377
  7.483   1.6068
  7.472   1.6171
  7.461   1.6686
  7.450   1.7098
  7.440   1.7407
  7.429   1.7613
  7.418   1.8025
  7.408   1.7510
  7.397   1.7098
  7.387   1.7922
  7.376   1.9467
  7.366   2.0497
  7.355   2.1939
  7.345   2.3072
  7.334   2.4411
  7.324   2.5235
  7.314   2.5853
  7.303   2.6574
  7.293   2.8325
  7.283   2.9458
  7.273   2.9767
  7.263   3.0179
  7.252   3.1209
  7.242   3.2033
  7.232   3.2960
  7.222   3.3166
  7.212   3.3269
  7.202   3.2651
  7.192   3.2342
  7.182   3.1518
  7.172   3.0591
  7.162   2.9870
  7.152   2.9149
  7.143   2.8737
  7.133   2.8325
  7.123   2.6368
  7.113   2.4308
  7.103   2.5750
  7.094   3.0179
  7.084   3.4196
  7.074   3.7595
  7.065   3.9037
  7.055   3.9552
  7.046   3.9346
  7.036   3.7801
  7.026   3.6359
  7.017   3.7801
  7.007   4.0479
  6.998   4.2848
  6.989   4.4290
  6.979   4.3260
  6.970   3.9449
  6.960   3.9861
  6.951   4.5526
  6.942   4.9646
  6.932   5.1500
  6.923   5.2633
  6.914   5.3457
  6.905   5.4487
  6.896   5.4796
  6.886   5.5208
  6.877   5.5414
  6.868   5.6135
  6.859   5.6650
  6.850   5.5929
  6.841   5.5208
  6.832   5.4590
  6.823   5.3354
  6.814   5.2015
  6.805   5.0264
  6.796   4.8307
  6.787   4.5629
  6.778   4.1818
  6.770   3.6771
  6.761   3.2857
  6.752   3.3887
  6.743   3.9861
  6.734   4.5732
  6.726   4.9131
  6.717   5.1500
  6.708   5.3972
  6.700   5.5105
  6.691   5.6341
  6.682   5.8298
  6.674   6.0770
  6.665   6.2830
  6.657   6.4684
  6.648   6.6126
  6.640   6.8907
  6.631   7.1585
  6.623   7.2718
  6.614   7.3233
  6.606   7.4160
  6.597   7.5396
  6.589   7.6941
  6.581   7.8692
  6.572   8.1576
  6.564   8.4460
  6.556   8.6108
  6.547   8.8168
  6.539   8.9919
  6.531   9.0949
  6.523   9.2391
  6.514   9.3833
  6.506   9.4039
  6.498   9.5069
  6.490   9.6511
  6.482   9.5996
  6.474   9.3936
  6.466   9.1464
  6.458   8.8374
  6.450   8.4975
  6.442   8.0958
  6.434   7.6632
  6.426   7.2718
  6.418   7.0658
  6.410   7.0761
  6.402   7.0143
  6.394   6.9010
  6.386   6.8392
  6.378   6.7980
  6.370   6.7568
  6.363   6.6744
  6.355   6.5405
  6.347   6.4684
  6.339   6.3757
  6.332   6.2418
  6.324   6.0770
  6.316   5.9328
  6.308   5.8298
  6.301   5.7577
  6.293   5.6753
  6.286   5.5620
  6.278   5.4899
  6.270   5.4178
  6.263   5.2633
  6.255   5.0882
  6.248   4.8822
  6.240   4.6453
  6.233   4.3363
  6.225   4.0891
  6.218   3.9552
  6.210   3.9552
  6.203   4.0479
  6.195   4.1097
  6.188   4.1097
  6.181   4.1303
  6.173   4.1715
  6.166   4.2539
  6.159   4.4290
  6.151   4.7071
  6.144   4.9543
  6.137   5.1294
  6.130   5.1809
  6.122   5.1500
  6.115   5.1088
  6.108   5.0779
  6.101   4.9646
  6.094   4.9749
  6.086   5.1706
  6.079   5.5105
  6.072   5.9431
  6.065   6.3551
  6.058   6.6641
  6.051   7.0143
  6.044   7.3439
  6.037   7.4057
  6.030   7.4469
  6.023   7.5602
  6.016   7.6323
  6.009   7.7147
  6.002   7.7044
  5.995   7.6941
  5.988   7.7250
  5.981   7.6632
  5.974   7.4984
  5.967   7.3233
  5.960   7.0452
  5.954   6.7053
  5.947   6.4478
  5.940   6.5920
  5.933   6.9834
  5.926   7.4366
  5.920   7.8898
  5.913   8.3533
  5.906   8.8374
  5.899   9.3936
  5.893  10.0425
  5.886  10.6399
  5.879  11.3403
  5.873  11.9068
  5.866  11.9892
  5.859  12.1643
  5.853  12.4836
  5.846  12.9162
  5.840  13.4209
  5.833  14.0492
  5.827  14.6054
  5.820  15.0998
  5.813  15.4088
  5.807  15.5324
  5.800  15.6766
  5.794  15.8620
  5.788  16.0268
  5.781  16.2637
  5.775  16.5418
  5.768  16.9023
  5.762  17.3452
  5.755  17.4791
  5.749  17.5615
  5.743  17.7778
  5.736  17.8808
  5.730  17.9735
  5.724  18.0559
  5.717  18.1280
  5.711  18.2207
  5.705  18.4267
  5.698  18.7563
  5.692  19.2919
  5.686  19.8172
  5.680  20.2086
  5.674  20.5485
  5.667  20.9399
  5.661  21.2901
  5.655  21.6712
  5.649  22.0935
  5.643  22.6085
  5.637  23.0823
  5.630  23.3604
  5.624  23.6591
  5.618  24.0608
  5.612  24.4625
  5.606  24.7921
  5.600  25.0496
  5.594  25.2762
  5.588  25.3998
  5.582  25.6161
  5.576  25.9148
  5.570  26.0487
  5.564  26.1002
  5.558  26.2753
  5.552  26.4504
  5.546  26.5946
  5.540  26.6976
  5.534  26.8418
  5.528  26.9551
  5.523  27.0375
  5.517  27.0581
  5.511  27.0581
  5.505  27.0581
  5.499  27.1405
  5.493  27.2332
  5.487  27.3877
  5.482  27.5628
  5.476  27.8512
  5.470  28.2323
  5.464  28.8091
  5.459  29.4168
  5.453  29.9009
  5.447  30.3644
  5.441  30.7867
  5.436  31.1472
  5.430  31.4459
  5.424  31.7755
  5.419  32.1875
  5.413  32.4450
  5.407  32.7437
  5.402  33.1351
  5.396  33.5265
  5.390  33.8355
  5.385  34.0930
  5.379  34.2990
  5.374  34.4535
  5.368  34.6080
  5.363  34.7316
  5.357  34.8449
  5.352  34.9994
  5.346  35.1436
  5.341  35.1745
  5.335  35.2260
  5.330  35.3496
  5.324  35.4423
  5.319  35.5144
  5.313  35.5453
  5.308  35.6174
  5.302  35.6689
  5.297  35.7307
  5.291  35.8234
  5.286  35.8955
  5.281  35.8749
  5.275  35.9161
  5.270  35.9676
  5.265  35.9882
  5.259  36.0088
  5.254  36.0191
  5.249  36.0500
  5.243  36.0706
  5.238  36.0397
  5.233  36.0603
  5.227  36.0706
  5.222  36.0397
  5.217  36.0294
  5.212  36.0912
  5.206  36.0809
  5.201  35.9985
  5.196  35.9573
  5.191  35.9573
  5.186  35.9264
  5.180  35.8543
  5.175  35.8234
  5.170  35.7719
  5.165  35.6895
  5.160  35.6586
  5.155  35.5762
  5.150  35.4629
  5.145  35.3599
  5.139  35.1745
  5.134  34.9376
  5.129  34.7110
  5.124  34.5874
  5.119  34.5359
  5.114  34.4432
  5.109  34.3093
  5.104  34.1445
  5.099  34.0312
  5.094  33.9076
  5.089  33.7737
  5.084  33.6398
  5.079  33.5059
  5.074  33.3308
  5.069  33.1763
  5.064  33.0527
  5.059  32.9188
  5.054  32.7952
  5.049  32.6716
  5.044  32.4862
  5.040  32.3111
  5.035  32.1257
  5.030  31.9403
  5.025  31.7446
  5.020  31.5592
  5.015  31.3532
  5.010  31.1266
  5.005  30.8794
  5.001  30.6425
  4.996  30.4365
  4.991  30.2202
  4.986  29.9215
  4.981  29.6537
  4.977  29.4065
  4.972  29.1799
  4.967  28.9533
  4.962  28.7370
  4.958  28.4898
  4.953  28.1911
  4.948  27.8615
  4.943  27.5422
  4.939  27.2435
  4.934  26.9242
  4.929  26.5431
  4.925  26.1826
  4.920  25.8324
  4.915  25.4925
  4.911  25.1114
  4.906  24.7200
  4.901  24.2874
  4.897  23.8239
  4.892  23.3604
  4.888  22.8969
  4.883  22.3613
  4.878  21.8154
  4.874  21.2489
  4.869  20.6412
  4.865  20.0232
  4.860  19.3949
  4.856  18.7048
  4.851  17.9838
  4.846  17.2010
  4.842  16.3667
  4.837  15.6457
  4.833  15.0792
  4.828  14.4715
  4.824  13.6990
  4.819  12.7411
  4.815  11.6802
  4.810  10.5575
  4.806   9.3730
  4.802   8.1267
  4.797   6.8083
  4.793   5.6032
  4.788   4.6453
  4.784   3.8934
  4.779   3.3372
  4.775   3.0076
  4.771   2.8943
  4.766   2.9767
  4.762   3.0488
  4.758   3.0591
  4.753   3.0488
  4.749   3.0694
  4.744   3.0591
  4.740   3.0282
  4.736   3.0385
  4.731   3.1415
  4.727   3.3372
  4.723   3.6153
  4.719   3.9243
  4.714   4.2539
  4.710   4.6041
  4.706   4.9234
  4.701   5.1706
  4.697   5.4384
  4.693   5.6959
  4.689   5.8813
  4.684   5.9637
  4.680   6.0255
  4.676   5.9328
  4.672   5.8195
  4.668   5.8195
  4.663   5.8504
  4.659   5.9328
  4.655   6.0873
  4.651   6.2418
  4.647   6.3860
  4.643   6.4890
  4.638   6.6332
  4.634   6.8289
  4.630   7.0555
  4.626   7.3027
  4.622   7.5190
  4.618   7.6220
  4.614   7.5087
  4.610   7.2306
  4.605   6.8907
  4.601   6.5714
  4.597   6.2624
  4.593   5.9946
  4.589   5.8195
  4.585   5.6856
  4.581   5.6238
  4.577   5.6444
  4.573   5.7474
  4.569   5.9225
  4.565   6.2418
  4.561   6.8289
  4.557   7.8692
  4.553   9.1773
  4.549  10.4339
  4.545  11.3403
  4.541  11.8141
  4.537  11.8038
  4.533  11.4742
  4.529  10.8871
  4.525  10.1558
  4.521   9.4142
  4.517   8.7344
  4.513   8.1679
  4.509   7.7559
  4.505   7.4881
  4.502   7.1894
  4.498   6.8701
  4.494   6.6538
  4.490   6.6126
  4.486   6.6538
  4.482   6.6847
  4.478   6.6641
  4.474   6.5920
  4.470   6.5920
  4.467   6.6229
  4.463   6.6229
  4.459   6.6332
  4.455   6.6332
  4.451   6.5405
  4.447   6.4478
  4.444   6.4066
  4.440   6.4581
  4.436   6.5817
  4.432   6.7259
  4.428   6.8701
  4.425   6.9731
  4.421   7.1070
  4.417   7.2924
  4.413   7.4160
  4.410   7.5087
  4.406   7.6426
  4.402   7.7971
  4.398   7.9104
  4.395   8.0752
  4.391   8.2709
  4.387   8.3945
  4.384   8.4357
  4.380   8.4769
  4.376   8.3945
  4.372   8.1885
  4.369   8.0031
  4.365   7.8795
  4.361   7.7456
  4.358   7.6529
  4.354   7.6426
  4.350   7.6838
  4.347   7.8280
  4.343   8.0752
  4.340   8.4357
  4.336   8.8374
  4.332   9.2391
  4.329   9.7026
  4.325  10.1146
  4.321  10.4545
  4.318  10.7944
  4.314  11.1137
  4.311  11.4227
  4.307  11.8038
  4.304  12.2673
  4.300  12.8338
  4.296  13.5548
  4.293  14.3273
  4.289  15.0998
  4.286  15.7590
  4.282  16.2534
  4.279  16.5624
  4.275  16.5933
  4.272  16.4491
  4.268  16.4388
  4.265  16.7478
  4.261  17.3555
  4.258  18.2104
  4.254  19.2095
  4.251  20.3116
  4.247  21.3725
  4.244  22.3201
  4.240  23.1647
  4.237  23.8239
  4.233  24.3183
  4.230  24.7200
  4.226  24.9981
  4.223  25.2350
  4.219  25.4719
  4.216  25.5852
  4.213  25.6985
  4.209  25.8942
  4.206  26.0281
  4.202  26.1620
  4.199  26.3577
  4.196  26.6358
  4.192  26.9242
  4.189  27.1817
  4.185  27.4392
  4.182  27.6864
  4.179  27.9851
  4.175  28.2838
  4.172  28.5928
  4.169  28.8812
  4.165  29.1593
  4.162  29.4374
  4.159  29.7258
  4.155  30.0142
  4.152  30.2099
  4.149  30.4777
  4.145  30.7352
  4.142  31.0133
  4.139  31.2914
  4.135  31.5489
  4.132  31.8579
  4.129  32.1463
  4.126  32.3214
  4.122  32.5377
  4.119  32.8158
  4.116  33.1248
  4.112  33.3308
  4.109  33.5059
  4.106  33.6913
  4.103  33.8767
  4.099  34.1239
  4.096  34.2990
  4.093  34.4020
  4.090  34.4947
  4.086  34.6389
  4.083  34.8758
  4.080  35.0612
  4.077  35.2157
  4.074  35.2466
  4.070  35.2363
  4.067  35.3908
  4.064  35.7719
  4.061  36.1221
  4.058  36.3075
  4.055  36.5547
  4.051  36.7607
  4.048  36.8946
  4.045  37.0285
  4.042  37.1315
  4.039  37.2963
  4.036  37.4508
  4.032  37.5538
  4.029  37.6568
  4.026  37.6877
  4.023  37.8010
  4.020  38.1203
  4.017  38.3366
  4.014  38.4602
  4.011  38.5529
  4.008  38.6971
  4.004  38.7795
  4.001  38.7692
  3.998  38.8001
  3.995  38.9134
  3.992  38.9855
  3.989  38.9958
  3.986  39.0576
  3.983  39.1503
  3.980  39.2121
  3.977  39.2842
  3.974  39.3357
  3.971  39.3769
  3.968  39.4696
  3.965  39.5726
  3.962  39.6138
  3.959  39.6653
  3.956  39.6756
  3.953  39.5932
  3.950  39.4696
  3.947  39.5005
  3.944  39.7168
  3.941  39.9537
  3.938  40.0876
  3.935  40.1803
  3.932  40.2524
  3.929  40.3142
  3.926  40.3760
  3.923  40.4378
  3.920  40.4378
  3.917  40.4893
  3.914  40.5305
  3.911  40.5820
  3.908  40.6026
  3.905  40.5923
  3.902  40.6026
  3.899  40.6747
  3.896  40.5923
  3.893  40.4996
  3.890  40.5099
  3.887  40.5511
  3.884  40.5202
  3.882  40.4378
  3.879  40.4275
  3.876  40.4687
  3.873  40.4893
  3.870  40.4275
  3.867  40.3142
  3.864  40.2112
  3.861  40.0979
  3.858  39.9331
  3.856  39.7580
  3.853  39.6241
  3.850  39.5520
  3.847  39.6138
  3.844  39.6550
  3.841  39.6344
  3.838  39.5623
  3.836  39.5932
  3.833  39.6756
  3.830  39.7374
  3.827  39.7374
  3.824  39.7889
  3.822  39.8301
  3.819  39.7477
  3.816  39.6447
  3.813  39.5623
  3.810  39.4387
  3.807  39.2945
  3.805  39.1606
  3.802  39.0885
  3.799  39.0370
  3.796  39.0473
  3.794  38.9855
  3.791  38.9752
  3.788  38.9649
  3.785  38.9031
  3.782  38.7898
  3.780  38.8104
  3.777  38.8310
  3.774  38.8516
  3.771  38.7898
  3.769  38.8104
  3.766  38.9443
  3.763  39.0370
  3.761  39.0782
  3.758  39.2018
  3.755  39.2945
  3.752  39.4078
  3.750  39.5417
  3.747  39.5829
  3.744  39.5623
  3.742  39.5932
  3.739  39.6035
  3.736  39.6138
  3.733  39.5932
  3.731  39.6138
  3.728  39.6550
  3.725  39.6035
  3.723  39.5108
  3.720  39.4902
  3.717  39.4902
  3.715  39.4490
  3.712  39.3357
  3.709  39.2739
  3.707  39.1606
  3.704  39.0782
  3.702  39.0061
  3.699  38.8928
  3.696  38.8001
  3.694  38.7692
  3.691  38.6662
  3.688  38.6044
  3.686  38.5014
  3.683  38.3366
  3.680  38.2542
  3.678  38.2027
  3.675  38.0997
  3.673  38.0070
  3.670  37.9349
  3.667  37.8216
  3.665  37.7289
  3.662  37.6671
  3.660  37.5744
  3.657  37.4714
  3.655  37.3890
  3.652  37.3478
  3.649  37.2963
  3.647  37.1727
  3.644  37.0800
  3.642  37.0491
  3.639  36.9358
  3.637  36.8637
  3.634  36.8122
  3.632  36.7298
  3.629  36.6165
  3.626  36.4929
  3.624  36.4208
  3.621  36.3487
  3.619  36.2354
  3.616  36.1427
  3.614  35.9882
  3.611  35.9058
  3.609  35.8028
  3.606  35.6689
  3.604  35.5556
  3.601  35.4938
  3.599  35.4114
  3.596  35.2157
  3.594  35.0303
  3.591  34.9582
  3.589  34.8552
  3.586  34.7007
  3.584  34.4947
  3.581  34.3299
  3.579  34.1960
  3.576  34.0415
  3.574  33.8458
  3.571  33.6707
  3.569  33.5162
  3.567  33.3514
  3.564  33.1866
  3.562  33.0218
  3.559  32.8364
  3.557  32.7025
  3.554  32.5789
  3.552  32.3729
  3.549  32.1051
  3.547  31.9197
  3.545  31.7549
  3.542  31.5077
  3.540  31.3017
  3.537  31.1678
  3.535  30.9824
  3.533  30.7764
  3.530  30.5807
  3.528  30.3541
  3.525  30.1481
  3.523  29.9730
  3.521  29.6743
  3.518  29.3756
  3.516  29.1078
  3.513  28.6855
  3.511  28.0881
  3.509  27.6555
  3.506  27.4392
  3.504  27.3671
  3.502  27.2641
  3.499  27.2126
  3.497  27.2229
  3.494  27.2332
  3.492  27.2641
  3.490  27.3156
  3.487  27.2847
  3.485  27.2023
  3.483  27.0478
  3.480  26.9448
  3.478  26.8212
  3.476  26.6667
  3.473  26.5328
  3.471  26.4092
  3.469  26.2547
  3.466  26.1414
  3.464  26.0693
  3.462  25.9766
  3.460  25.8530
  3.457  25.7191
  3.455  25.5131
  3.453  25.4101
  3.450  25.1732
  3.448  24.8642
  3.446  24.6994
  3.443  24.5243
  3.441  24.3183
  3.439  24.0402
  3.437  23.7312
  3.434  23.3604
  3.432  22.9072
  3.430  22.5364
  3.428  22.3304
  3.425  22.2171
  3.423  22.0729
  3.421  21.9287
  3.418  21.7948
  3.416  21.6403
  3.414  21.5579
  3.412  21.5682
  3.409  21.4858
  3.407  21.4034
  3.405  21.4034
  3.403  21.3828
  3.401  21.2901
  3.398  21.2901
  3.396  21.2695
  3.394  21.2489
  3.392  21.1150
  3.389  20.9502
  3.387  20.7957
  3.385  20.6515
  3.383  20.4867
  3.381  20.2498
  3.378  20.0541
  3.376  19.9717
  3.374  19.8275
  3.372  19.6524
  3.370  19.5391
  3.367  19.5082
  3.365  19.4670
  3.363  19.3949
  3.361  19.2404
  3.359  19.0756
  3.357  18.9623
  3.354  18.8799
  3.352  18.7151
  3.350  18.6121
  3.348  18.5400
  3.346  18.4679
  3.344  18.2619
  3.341  18.0765
  3.339  17.9735
  3.337  17.8499
  3.335  17.6439
  3.333  17.5100
  3.331  17.3967
  3.329  17.3040
  3.326  17.1907
  3.324  17.0877
  3.322  16.9641
  3.320  16.8817
  3.318  16.7478
  3.316  16.5521
  3.314  16.3770
  3.312  16.2431
  3.309  16.1195
  3.307  15.9650
  3.305  15.8208
  3.303  15.6869
  3.301  15.5427
  3.299  15.3779
  3.297  15.2234
  3.295  15.1204
  3.293  15.0277
  3.291  14.8938
  3.288  14.7805
  3.286  14.6363
  3.284  14.5024
  3.282  14.3376
  3.280  14.1831
  3.278  14.0389
  3.276  13.8947
  3.274  13.8432
  3.272  13.7402
  3.270  13.6063
  3.268  13.4209
  3.266  13.3179
  3.264  13.2046
  3.262  13.0604
  3.259  12.8544
  3.257  12.6690
  3.255  12.5248
  3.253  12.4424
  3.251  12.2879
  3.249  12.0716
  3.247  11.9171
  3.245  11.8141
  3.243  11.6802
  3.241  11.6081
  3.239  11.5154
  3.237  11.4330
  3.235  11.3197
  3.233  11.2270
  3.231  11.1034
  3.229  11.0313
  3.227  10.9077
  3.225  10.7223
  3.223  10.6399
  3.221  10.6914
  3.219  10.6193
  3.217  10.4751
  3.215  10.3721
  3.213  10.3309
  3.211  10.2279
  3.209  10.1455
  3.207  10.0116
  3.205   9.8777
  3.203   9.8159
  3.201   9.8056
  3.199   9.6305
  3.197   9.4863
  3.195   9.3627
  3.193   9.3112
  3.191   9.1979
  3.189   9.1052
  3.187   9.0022
  3.185   8.9507
  3.183   8.8580
  3.182   8.7447
  3.180   8.6829
  3.178   8.5902
  3.176   8.4975
  3.174   8.4666
  3.172   8.3018
  3.170   8.2194
  3.168   8.1885
  3.166   8.1164
  3.164   8.0031
  3.162   7.9207
  3.160   7.8074
  3.158   7.7147
  3.156   7.6220
  3.154   7.5911
  3.152   7.5705
  3.151   7.4675
  3.149   7.3748
  3.147   7.3233
  3.145   7.1791
  3.143   7.1379
  3.141   7.0967
  3.139   7.0452
  3.137   6.9422
  3.135   6.8495
  3.133   6.7774
  3.132   6.7259
  3.130   6.6847
  3.128   6.6023
  3.126   6.5405
  3.124   6.5199
  3.122   6.4169
  3.120   6.3654
  3.118   6.3036
  3.117   6.1491
  3.115   6.0461
  3.113   6.0564
  3.111   6.0461
  3.109   5.9637
  3.107   5.8607
  3.105   5.8710
  3.103   5.8710
  3.102   5.8504
  3.100   5.7268
  3.098   5.6753
  3.096   5.6238
  3.094   5.5620
  3.092   5.5620
  3.091   5.5517
  3.089   5.4693
  3.087   5.4796
  3.085   5.4384
  3.083   5.3354
  3.081   5.2015
  3.079   5.1706
  3.078   5.1912
  3.076   5.2015
  3.074   5.1397
  3.072   5.1088
  3.070   5.0779
  3.069   5.0058
  3.067   4.9955
  3.065   5.0161
  3.063   4.9543
  3.061   4.9440
  3.060   4.9028
  3.058   4.8925
  3.056   4.8410
  3.054   4.7586
  3.052   4.7380
  3.051   4.7689
  3.049   4.7380
  3.047   4.7483
  3.045   4.7586
  3.043   4.7586
  3.042   4.6865
  3.040   4.6247
  3.038   4.5629
  3.036   4.5526
  3.034   4.5629
  3.033   4.5526
  3.031   4.5732
  3.029   4.5629
  3.027   4.5423
  3.026   4.5423
  3.024   4.4908
  3.022   4.5629
  3.020   4.6556
  3.019   4.6247
  3.017   4.5011
  3.015   4.5114
  3.013   4.4805
  3.012   4.4496
  3.010   4.4187
  3.008   4.4908
  3.006   4.5526
  3.005   4.5629
  3.003   4.4805
  3.001   4.4908
  2.999   4.5217
  2.998   4.5217
  2.996   4.4290
  2.994   4.3981
  2.992   4.3775
  2.991   4.3981
  2.989   4.4599
  2.987   4.5114
  2.986   4.4908
  2.984   4.4805
  2.982   4.4496
  2.980   4.4599
  2.979   4.4393
  2.977   4.4599
  2.975   4.4599
  2.974   4.4496
  2.972   4.4084
  2.970   4.4599
  2.968   4.4290
  2.967   4.3878
  2.965   4.3981
  2.963   4.4290
  2.962   4.3363
  2.960   4.3260
  2.958   4.4187
  2.957   4.4496
  2.955   4.3981
  2.953   4.3878
  2.952   4.3981
  2.950   4.4084
  2.948   4.3466
  2.947   4.3569
  2.945   4.2745
  2.943   4.2024
  2.942   4.2436
  2.940   4.3363
  2.938   4.2848
  2.937   4.2642
  2.935   4.2127
  2.933   4.2642
  2.932   4.3569
  2.930   4.3878
  2.928   4.3466
  2.927   4.4599
  2.925   4.4290
  2.923   4.4187
  2.922   4.4496
  2.920   4.4702
  2.918   4.4496
  2.917   4.5114
  2.915   4.5423
  2.913   4.6968
  2.912   4.6762
  2.910   4.5732
  2.909   4.5320
  2.907   4.5938
  2.905   4.7483
  2.904   4.9234
  2.902   4.9337
  2.900   4.9440
  2.899   4.9337
  2.897   4.9646
  2.896   4.8822
  2.894   4.8822
  2.892   4.9234
  2.891   4.9852
  2.889   5.0573
  2.887   5.0985
  2.886   5.0882
  2.884   5.1397
  2.883   5.2427
  2.881   5.3766
  2.879   5.4693
  2.878   5.4178
  2.876   5.3869
  2.875   5.4590
  2.873   5.5105
  2.871   5.5517
  2.870   5.5723
  2.868   5.7371
  2.867   5.7577
  2.865   5.7886
  2.864   5.8401
  2.862   5.9328
  2.860   5.9534
  2.859   6.0049
  2.857   6.0770
  2.856   6.1697
  2.854   6.1903
  2.853   6.2006
  2.851   6.1388
  2.849   6.2418
  2.848   6.4066
  2.846   6.4787
  2.845   6.5405
  2.843   6.6538
  2.842   6.6950
  2.840   6.7156
  2.838   6.6950
  2.837   6.7671
  2.835   6.9216
  2.834   6.9834
  2.832   6.9834
  2.831   7.0658
  2.829   7.0864
  2.828   7.1791
  2.826   7.1688
  2.825   7.1585
  2.823   7.3027
  2.821   7.3954
  2.820   7.3748
  2.818   7.5705
  2.817   7.6941
  2.815   7.7147
  2.814   7.7044
  2.812   7.7353
  2.811   7.7971
  2.809   7.8280
  2.808   7.9310
  2.806   8.0031
  2.805   7.9928
  2.803   7.9928
  2.802   8.0237
  2.800   8.0649
  2.799   8.0237
  2.797   8.1267
  2.796   8.1988
  2.794   8.2400
  2.793   8.3945
  2.791   8.4357
  2.790   8.4563
  2.788   8.7035
  2.787   8.8271
  2.785   8.8168
  2.784   8.7035
  2.782   8.8477
  2.781   9.0331
  2.779   9.1773
  2.778   9.3524
  2.776   9.5069
  2.775   9.6717
  2.773   9.9498
  2.772  10.1867
  2.770  10.3721
  2.769  10.5472
  2.767  10.7120
  2.766  11.0107
  2.764  11.2991
  2.763  11.5257
  2.761  11.8759
  2.760  12.1849
  2.758  12.4836
  2.757  12.8853
  2.756  13.3488
  2.754  13.7402
  2.753  14.0286
  2.751  14.3582
  2.750  14.8320
  2.748  15.2852
  2.747  15.6457
  2.745  16.1092
  2.744  16.6448
  2.742  17.0259
  2.741  17.6336
  2.740  18.3752
  2.738  18.8078
  2.737  19.0241
  2.735  19.6627
  2.734  20.1983
  2.732  20.5691
  2.731  21.1974
  2.729  21.8051
  2.728  22.1965
  2.727  22.7424
  2.725  23.4222
  2.724  24.0711
  2.722  24.4419
  2.721  25.0084
  2.719  25.5852
  2.718  25.9148
  2.717  26.2341
  2.715  26.6152
  2.714  27.2126
  2.712  27.9130
  2.711  28.4692
  2.709  28.8503
  2.708  29.2417
  2.707  29.7258
  2.705  30.1584
  2.704  30.6631
  2.702  31.0854
  2.701  31.4665
  2.700  31.8682
  2.698  32.4141
  2.697  32.9703
  2.695  33.6295
  2.694  34.1342
  2.693  34.3608
  2.691  34.5668
  2.690  34.9273
  2.688  35.3496
  2.687  35.9573
  2.686  36.3693
  2.684  36.6886
  2.683  36.9152
  2.681  37.1315
  2.680  37.5435
  2.679  37.9040
  2.677  38.0070
  2.676  38.3572
  2.675  38.5323
  2.673  38.7692
  2.672  39.2739
  2.670  39.9228
  2.669  39.9331
  2.668  39.9537
  2.666  40.4378
  2.665  40.7983
  2.664  40.6438
  2.662  40.6953
  2.661  40.9013
  2.659  41.0661
  2.658  41.3751
  2.657  41.5605
  2.655  41.7562
  2.654  41.9622
  2.653  42.2403
  2.651  42.3536
  2.650  42.2918
  2.649  42.4978
  2.647  42.7141
  2.646  43.0643
  2.645  43.3527
  2.643  43.4145
  2.642  43.5484
  2.640  43.6926
  2.639  43.7029
  2.638  43.7853
  2.636  44.0119
  2.635  44.3724
  2.634  44.8256
  2.632  44.9389
  2.631  45.1243
  2.630  45.5157
  2.628  45.4436
  2.627  45.5260
  2.626  45.5260
  2.624  45.4333
  2.623  45.5981
  2.622  45.9586
  2.620  46.3912
  2.619  46.5045
  2.618  46.6075
  2.617  46.7723
  2.615  46.5869
  2.614  46.6178
  2.613  46.7002
  2.611  46.7723
  2.610  46.9989
  2.609  46.9886
  2.607  46.9989
  2.606  47.3491
  2.605  47.5654
  2.603  47.5139
  2.602  47.4418
  2.601  47.4006
  2.599  47.3182
  2.598  47.3182
  2.597  47.6375
  2.596  48.1731
  2.594  48.4203
  2.593  48.0186
  2.592  47.6375
  2.590  47.5242
  2.589  47.7817
  2.588  47.9671
  2.586  47.8435
  2.585  47.7817
  2.584  47.8641
  2.583  47.7096
  2.581  47.5860
  2.580  47.6581
  2.579  47.5860
  2.577  47.6066
  2.576  47.7405
  2.575  47.5654
  2.574  47.5654
  2.572  47.5448
  2.571  47.3594
  2.570  47.2667
  2.569  47.0504
  2.567  47.0916
  2.566  47.2255
  2.565  47.1843
  2.563  47.1946
  2.562  47.1431
  2.561  47.0401
  2.560  46.9783
  2.558  46.8032
  2.557  46.5560
  2.556  46.3088
  2.555  46.2985
  2.553  46.2779
  2.552  46.1955
  2.551  46.1131
  2.550  46.1028
  2.548  45.9792
  2.547  46.0101
  2.546  45.9174
  2.545  45.7629
  2.543  45.6084
  2.542  45.5775
  2.541  45.3303
  2.540  45.1449
  2.538  45.2891
  2.537  45.3406
  2.536  45.0934
  2.535  44.9389
  2.533  44.8668
  2.532  44.7123
  2.531  44.6093
  2.530  44.6196
  2.528  44.6402
  2.527  44.4136
  2.526  44.2385
  2.525  44.1561
  2.524  43.9398
  2.522  43.9604
  2.521  43.9604
  2.520  43.7956
  2.519  43.6514
  2.517  43.4763
  2.516  43.3115
  2.515  43.1776
  2.514  43.2188
  2.513  43.2909
  2.511  43.1055
  2.510  42.9407
  2.509  42.9201
  2.508  42.8583
  2.506  42.7450
  2.505  42.6832
  2.504  42.5596
  2.503  42.5081
  2.502  42.4360
  2.500  42.4463
  2.500  42.4463
  2.498  42.2431
  2.496  42.4608
  2.494  42.4713
  2.492  42.3314
  2.490  42.5737
  2.488  42.2460
  2.486  42.4262
  2.484  42.4867
  2.482  42.6877
  2.480  42.7436
  2.478  42.7136
  2.476  43.2659
  2.474  43.1012
  2.472  43.2254
  2.470  43.5537
  2.468  43.6757
  2.466  43.5210
  2.464  43.6273
  2.462  44.0747
  2.460  44.0894
  2.458  44.1486
  2.456  44.4792
  2.454  44.6453
  2.452  44.9036
  2.450  44.8340
  2.448  44.9740
  2.446  45.4225
  2.444  45.5636
  2.442  45.7954
  2.440  46.0005
  2.438  46.2109
  2.436  46.5570
  2.434  46.6798
  2.432  46.8735
  2.430  47.2958
  2.428  47.6229
  2.426  47.8022
  2.424  48.1000
  2.422  48.5057
  2.420  48.8485
  2.418  49.3094
  2.416  49.4864
  2.414  49.7523
  2.412  50.1936
  2.410  50.4670
  2.408  50.7187
  2.406  50.9978
  2.404  51.3579
  2.402  51.6612
  2.400  51.9737
  2.398  52.2858
  2.396  52.4746
  2.394  52.6098
  2.392  52.8726
  2.390  53.2229
  2.388  53.4023
  2.386  53.5486
  2.384  53.7818
  2.382  54.0607
  2.380  54.1389
  2.378  54.3819
  2.376  54.6744
  2.374  54.8376
  2.372  55.0675
  2.370  55.2799
  2.368  55.2710
  2.366  55.5670
  2.364  55.6861
  2.362  55.8649
  2.360  56.0930
  2.358  56.2632
  2.356  56.4838
  2.354  56.6343
  2.352  56.8439
  2.350  57.0536
  2.348  57.2359
  2.346  57.3231
  2.344  57.4086
  2.342  57.5553
  2.340  57.5261
  2.338  57.6962
  2.336  57.7505
  2.334  57.8756
  2.332  58.0089
  2.330  58.1408
  2.328  58.3058
  2.326  58.3639
  2.324  58.4718
  2.322  58.5029
  2.320  58.5223
  2.318  58.6618
  2.316  58.8155
  2.314  58.8568
  2.312  58.7817
  2.310  58.8300
  2.308  58.9575
  2.306  58.9609
  2.304  58.9450
  2.302  59.0249
  2.300  58.9642
  2.298  58.9575
  2.296  59.0102
  2.294  58.9359
  2.292  58.9910
  2.290  59.0001
  2.288  59.0815
  2.286  59.1147
  2.284  59.0224
  2.282  59.0736
  2.280  59.0724
  2.278  58.9923
  2.276  58.9841
  2.274  59.0953
  2.272  58.9010
  2.270  58.8045
  2.268  58.8575
  2.266  58.8624
  2.264  58.9285
  2.262  58.9237
  2.260  58.8619
  2.258  58.9000
  2.256  58.8540
  2.254  58.7584
  2.252  58.6619
  2.250  58.6407
  2.248  58.5776
  2.246  58.3975
  2.244  58.3884
  2.242  58.3850
  2.240  58.4433
  2.238  58.3670
  2.236  58.2561
  2.234  58.2935
  2.232  58.2939
  2.230  58.2446
  2.228  58.1491
  2.226  58.0395
  2.224  58.0598
  2.222  57.9845
  2.220  57.9729
  2.218  57.9671
  2.216  57.8316
  2.214  57.8333
  2.212  57.9158
  2.210  57.9023
  2.208  57.8841
  2.206  57.8534
  2.204  57.8181
  2.202  57.9235
  2.200  57.9325
  2.198  57.8721
  2.196  57.8830
  2.194  57.8896
  2.192  57.9160
  2.190  58.0125
  2.188  58.0761
  2.186  58.1207
  2.184  58.1300
  2.182  58.0794
  2.180  58.1241
  2.178  58.0654
  2.176  58.0946
  2.174  58.1807
  2.172  58.1564
  2.170  58.1542
  2.168  58.2001
  2.166  58.2388
  2.164  58.3144
  2.162  58.2407
  2.160  58.2007
  2.158  58.2255
  2.156  58.2792
  2.154  58.3206
  2.152  58.2680
  2.150  58.2242
  2.148  58.1753
  2.146  58.0498
  2.144  57.9618
  2.142  57.9055
  2.140  57.8807
  2.138  57.8006
  2.136  57.6650
  2.134  57.5408
  2.132  57.3636
  2.130  57.2657
  2.128  57.2318
  2.126  57.1325
  2.124  56.9988
  2.122  56.8671
  2.120  56.6760
  2.118  56.4491
  2.116  56.3460
  2.114  56.1768
  2.112  56.0297
  2.110  56.0143
  2.108  55.9787
  2.106  55.7421
  2.104  55.6043
  2.102  55.6298
  2.100  55.4370
  2.098  55.3967
  2.096  55.3422
  2.094  55.2570
  2.092  55.1725
  2.090  55.0198
  2.088  54.9219
  2.086  54.8085
  2.084  54.8325
  2.082  54.7086
  2.080  54.6717
  2.078  54.5720
  2.076  54.5583
  2.074  54.5420
  2.072  54.4358
  2.070  54.3676
  2.068  54.4328
  2.066  54.3820
  2.064  54.3198
  2.062  54.2048
  2.060  54.2012
  2.058  54.0899
  2.056  53.9565
  2.054  53.9072
  2.052  53.8510
  2.050  53.6566
  2.048  53.6561
  2.046  53.6225
  2.044  53.4727
  2.042  53.2983
  2.040  53.1478
  2.038  53.0950
  2.036  52.8841
  2.034  52.7942
  2.032  52.6153
  2.030  52.3892
  2.028  52.1660
  2.026  51.9175
  2.024  51.6170
  2.022  51.3097
  2.020  51.1331
  2.018  50.7305
  2.016  50.5465
  2.014  50.1448
  2.012  49.8250
  2.010  49.4952
  2.008  49.0652
  2.006  48.7244
  2.004  48.4222
  2.002  48.0584
  2.000  47.6578
  1.998  47.3327
  1.996  46.9125
  1.994  46.6018
  1.992  46.4310
  1.990  46.1836
  1.988  45.8839
  1.986  45.6402
  1.984  45.3986
  1.982  45.2284
  1.980  44.9993
  1.978  44.7178
  1.976  44.6304
  1.974  44.4224
  1.972  44.2652
  1.970  44.1901
  1.968  43.9367
  1.966  43.9967
  1.964  43.8617
  1.962  43.6958
  1.960  43.6291
  1.958  43.4534
  1.956  43.4463
  1.954  43.3609
  1.952  43.2187
  1.950  43.0916
  1.948  42.9565
  1.946  42.9238
  1.944  42.8115
  1.942  42.7965
  1.940  42.6040
  1.938  42.5642
  1.936  42.6688
  1.934  42.7312
  1.932  42.9016
  1.930  43.1134
  1.928  43.5480
  1.926  43.9247
  1.924  44.5797
  1.922  45.3432
  1.920  46.0146
  1.918  46.8418
  1.916  47.8957
  1.914  48.7147
  1.912  49.7389
  1.910  50.7463
  1.908  51.7304
  1.906  52.6216
  1.904  53.6111
  1.902  54.2498
  1.900  55.0078
  1.898  55.7893
  1.896  56.2413
  1.894  56.9579
  1.892  57.4702
  1.890  57.8803
  1.888  58.4622
  1.886  58.7178
  1.884  59.1052
  1.882  59.5197
  1.880  59.7208
  1.878  59.8452
  1.876  60.0773
  1.874  60.3523
  1.872  60.5462
  1.870  60.8240
  1.868  60.7948
  1.866  60.9342
  1.864  61.0194
  1.862  61.1631
  1.860  61.1485
  1.858  61.3686
  1.856  61.3377
  1.854  61.2688
  1.852  61.3495
  1.850  61.3210
  1.848  61.5185
  1.846  61.4239
  1.844  61.7437
  1.842  61.4886
  1.840  61.4661
  1.838  61.5152
  1.836  61.3752
  1.834  61.5181
  1.832  61.5141
  1.830  61.6410
  1.828  61.4183
  1.826  61.3846
  1.824  61.3486
  1.822  61.3716
  1.820  61.4393
  1.818  61.3883
  1.816  61.4690
  1.814  61.3440
  1.812  61.2300
  1.810  61.2199
  1.808  61.1960
  1.806  61.2592
  1.804  61.2207
  1.802  60.9869
  1.800  61.0958
  1.798  61.0895
  1.796  61.1209
  1.794  61.1249
  1.792  61.2297
  1.790  61.0700
  1.788  61.0452
  1.786  61.1121
  1.784  61.0766
  1.782  60.9183
  1.780  61.0733
  1.778  61.0523
  1.776  61.1091
  1.774  61.1882
  1.772  61.1140
  1.770  61.1007
  1.768  61.1964
  1.766  61.3241
  1.764  61.2837
  1.762  61.2219
  1.760  61.2583
  1.758  61.2016
  1.756  61.3637
  1.754  61.3518
  1.752  61.4880
  1.750  61.4355
  1.748  61.4990
  1.746  61.5788
  1.744  61.5631
  1.742  61.6362
  1.740  61.8275
  1.738  61.7283
  1.736  61.7375
  1.734  61.7136
  1.732  61.7593
  1.730  61.9405
  1.728  62.0580
  1.726  61.9078
  1.724  61.9253
  1.722  62.0836
  1.720  61.9235
  1.718  61.8471
  1.716  61.9028
  1.714  61.7633
  1.712  61.9889
  1.710  61.9656
  1.708  61.9555
  1.706  61.9586
  1.704  61.8869
  1.702  61.7422
  1.700  61.7952
  1.698  61.8653
  1.696  61.8643
  1.694  61.7833
  1.692  61.8758
  1.690  61.8248
  1.688  61.8066
  1.686  61.7804
  1.684  61.7342
  1.682  61.7042
  1.680  61.8180
  1.678  61.7066
  1.676  61.7203
  1.674  61.7381
  1.672  61.6276
  1.670  61.6443
  1.668  61.6449
  1.666  61.6499
  1.664  61.5911
  1.662  61.6424
  1.660  61.6736
  1.658  61.4719
  1.656  61.5699
  1.654  61.6390
  1.652  61.5678
  1.650  61.5061
  1.648  61.4879
  1.646  61.3856
  1.644  61.4455
  1.642  61.3856
  1.640  61.4250
  1.638  61.4415
  1.636  61.3701
  1.634  61.3357
  1.632  61.3277
  1.630  61.2740
  1.628  61.1732
  1.626  61.2033
  1.624  61.2661
  1.622  61.2750
  1.620  61.2511
  1.618  61.1994
  1.616  61.1527
  1.614  61.1588
  1.612  61.1353
  1.610  61.1190
  1.608  60.9985
  1.606  61.0483
  1.604  61.1658
  1.602  61.2216
  1.600  61.1134
  1.598  61.1281
  1.596  61.1031
  1.594  61.0905
  1.592  61.0772
  1.590  61.0352
  1.588  61.1115
  1.586  61.0811
  1.584  61.0496
  1.582  61.0288
  1.580  60.9847
  1.578  60.8648
  1.576  60.7828
  1.574  60.9372
  1.572  60.9163
  1.570  60.8638
  1.568  60.9174
  1.566  60.9452
  1.564  60.9837
  1.562  60.9224
  1.560  60.8435
  1.558  60.8754
  1.556  60.9431
  1.554  60.9100
  1.552  60.7874
  1.550  60.7395
  1.548  60.7065
  1.546  60.6766
  1.544  60.6796
  1.542  60.6959
  1.540  60.7676
  1.538  60.6467
  1.536  60.5652
  1.534  60.5317
  1.532  60.4720
  1.530  60.5225
  1.528  60.5842
  1.526  60.5695
  1.524  60.5653
  1.522  60.3963
  1.520  60.3609
  1.518  60.4540
  1.516  60.4135
  1.514  60.3490
  1.512  60.2836
  1.510  60.2513
  1.508  60.1031
  1.506  60.1133
  1.504  60.1464
  1.502  60.1057
  1.500  59.9460
  1.498  59.8862
  1.496  59.7839
  1.494  59.7642
  1.492  59.6032
  1.490  59.6378
  1.488  59.6028
  1.486  59.4838
  1.484  59.4250
  1.482  59.3559
  1.480  59.4500
  1.478  59.4245
  1.476  59.3733
  1.474  59.3621
  1.472  59.3207
  1.470  59.3172
  1.468  59.2998
  1.466  59.2794
  1.464  59.2159
  1.462  59.1221
  1.460  59.1424
  1.458  59.0325
  1.456  58.9454
  1.454  58.8766
  1.452  58.7342
  1.450  58.6987
  1.448  58.6494
  1.446  58.6493
  1.444  58.6443
  1.442  58.6026
  1.440  58.6760
  1.438  58.6595
  1.436  58.7158
  1.434  58.9062
  1.432  58.9723
  1.430  59.0196
  1.428  59.2277
  1.426  59.2747
  1.424  59.4924
  1.422  59.7463
  1.420  59.8596
  1.418  60.0269
  1.416  60.1381
  1.414  60.4063
  1.412  60.6009
  1.410  60.8502
  1.408  61.0454
  1.406  61.2084
  1.404  61.3723
  1.402  61.4278
  1.400  61.6670
  1.398  61.7275
  1.396  61.7669
  1.394  61.9086
  1.392  62.0434
  1.390  62.1039
  1.388  62.0303
  1.386  62.1884
  1.384  62.1103
  1.382  62.2967
  1.380  62.3399
  1.378  62.3444
  1.376  62.3506
  1.374  62.2753
  1.372  62.3489
  1.370  62.4223
  1.368  62.4402
  1.366  62.4351
  1.364  62.2844
  1.362  62.4263
  1.360  62.2965
  1.358  62.2746
  1.356  62.3575
  1.354  62.3930
  1.352  62.4335
  1.350  62.3509
  1.348  62.4171
  1.346  62.3494
  1.344  62.4588
  1.342  62.4291
  1.340  62.5192
  1.338  62.4421
  1.336  62.4816
  1.334  62.6119
  1.332  62.5980
  1.330  62.4700
  1.328  62.6922
  1.326  62.5088
  1.324  62.6553
  1.322  62.6437
  1.320  62.4592
  1.318  62.7214
  1.316  62.7261
  1.314  62.6195
  1.312  62.6387
  1.310  62.7694
  1.308  62.6556
  1.306  62.6569
  1.304  62.6484
  1.302  62.7998
  1.300  62.6399
  1.298  62.5179
  1.296  62.5642
  1.294  62.6537
  1.292  62.5581
  1.290  62.6223
  1.288  62.6625
  1.286  62.6198
  1.284  62.6133
  1.282  62.8271
  1.280  62.5634
  1.278  62.4901
  1.276  62.4068
  1.274  62.7921
  1.272  62.3969
  1.270  62.5920
  1.268  62.6726
  1.266  62.7036
  1.264  62.5687
  1.262  62.2922
  1.260  62.6372
  1.258  62.5452
  1.256  62.5087
  1.254  62.3643
  1.252  62.4529
  1.250  62.5212
  1.248  62.4082
  1.246  62.5248
  1.244  62.4753
  1.242  62.4973
  1.240  62.3459
  1.238  62.3414
  1.236  62.6407
  1.234  62.4022
  1.232  62.3773
  1.230  62.4753
  1.228  62.4492
  1.226  62.4088
  1.224  62.2417
  1.222  62.4785
  1.220  62.4181
  1.218  62.4154
  1.216  62.4796
  1.214  62.4179
  1.212  62.5445
  1.210  62.4116
  1.208  62.2166
  1.206  62.2744
  1.204  62.3980
  1.202  62.3458
  1.200  62.3519
  1.198  62.2376
  1.196  62.2809
  1.194  62.3437
  1.192  62.4137
  1.190  62.3746
  1.188  62.2478
  1.186  62.3642
  1.184  62.4234
  1.182  62.3125
  1.180  62.3167
  1.178  62.2946
  1.176  62.1471
  1.174  62.3473
  1.172  62.2657
  1.170  62.2802
  1.168  62.1647
  1.166  62.3879
  1.164  62.1907
  1.162  62.3636
  1.160  62.4204
  1.158  62.2660
  1.156  62.4190
  1.154  62.4968
  1.152  62.3651
  1.150  62.4312
  1.148  62.2688
  1.146  62.3620
  1.144  62.3220
  1.142  62.4642
  1.140  62.5596
  1.138  62.3718
  1.136  62.4181
  1.134  62.5659
  1.132  62.5367
  1.130  62.4121
  1.128  62.3155
  1.126  62.3631
  1.124  62.3572
  1.122  62.3391
  1.120  62.4128
  1.118  62.3998
  1.116  62.4002
  1.114  62.3229
  1.112  62.2767
  1.110  62.3855
  1.108  62.4190
  1.106  62.3204
  1.104  62.3019
  1.102  62.2609
  1.100  62.2974
  1.098  62.3568
  1.096  62.3747
  1.094  62.4017
  1.092  62.5189
  1.090  62.3423
  1.088  62.2744
  1.086  62.2413
  1.084  62.1442
  1.082  62.3337
  1.080  62.3329
  1.078  62.1236
  1.076  62.1385
  1.074  62.2196
  1.072  62.3130
  1.070  62.2094
  1.068  62.1906
  1.066  62.1703
  1.064  62.3559
  1.062  62.2151
  1.060  62.2643
  1.058  62.2407
  1.056  62.2047
  1.054  62.0974
  1.052  62.2358
  1.050  62.2043
  1.048  62.1880
  1.046  62.2393
  1.044  62.1440
  1.042  62.0524
  1.040  62.1117
  1.038  62.2312
  1.036  62.1600
  1.034  62.1708
  1.032  62.1837
  1.030  62.1179
  1.028  62.0970
  1.026  62.1178
  1.024  62.1068
  1.022  62.1382
  1.020  62.1494
  1.018  62.0645
  1.016  61.9861
  1.014  62.0208
  1.012  62.0583
  1.010  61.9879
  1.008  61.9881
  1.006  62.0408
  1.004  62.0855
  1.002  62.0346
  1.000  62.0228
  0.998  62.0016
  0.996  61.8604
  0.994  61.8856
  0.992  62.0492
  0.990  61.9298
  0.988  61.8740
  0.986  61.8771
  0.984  61.8926
  0.982  61.9174
  0.980  61.9251
  0.978  61.8835
  0.976  61.8851
  0.974  61.7934
  0.972  61.7380
  0.970  61.8356
  0.968  61.9057
  0.966  61.8086
  0.964  61.8476
  0.962  61.8899
  0.960  61.7620
  0.958  61.7494
  0.956  61.8476
  0.954  61.9008
  0.952  61.8077
  0.950  61.6904
  0.948  61.7111
  0.946  61.7112
  0.944  61.6655
  0.942  61.5512
  0.940  61.4989
  0.938  61.5861
  0.936  61.6419
  0.934  61.6591
  0.932  61.6904
  0.930  61.6023
  0.928  61.5472
  0.926  61.4999
  0.924  61.5006
  0.922  61.5332
  0.920  61.5037
  0.918  61.3941
  0.916  61.4206
  0.914  61.4866
  0.912  61.4173
  0.910  61.4067
  0.908  61.4193
  0.906  61.3395
  0.904  61.2677
  0.902  61.3761
  0.900  61.4635
  0.898  61.4898
  0.896  61.5184
  0.894  61.6159
  0.892  61.4221
  0.890  61.2809
  0.888  61.3295
  0.886  61.1836
  0.884  61.1286
  0.882  61.5578
  0.880  61.4712
  0.878  61.4154
  0.876  61.1888
  0.874  61.2421
  0.872  61.5319
  0.870  61.7673
  0.868  61.7466
  0.866  61.4064
  0.864  61.0689
  0.862  61.6085
  0.860  61.0344
  0.858  60.6594
  0.856  60.6913
  0.854  60.6264
  0.852  60.6222
  0.850  60.7029
  0.848  60.7038
  0.846  60.6393
  0.844  60.6501
  0.842  60.6955
  0.840  60.6798
  0.838  60.6652
  0.836  60.6672
  0.834  60.6395
  0.832  60.6396
  0.830  60.6568
  0.828  60.6601
  0.826  60.6868
  0.824  60.6780
  0.822  60.6829
  0.820  60.6988
  0.818  60.7295
  0.816  60.7146
  0.814  60.6923
  0.812  60.6922
  0.810  60.6642
  0.808  60.6921
  0.806  60.7138
  0.804  60.7013
  0.802  60.7151
  0.800  60.7397
  0.798  60.7260
  0.796  60.7238
  0.794  60.7468
  0.792  60.7406
  0.790  60.7435
  0.788  60.7401
  0.786  60.7017
  0.784  60.7289
  0.782  60.7542
  0.780  60.7387
  0.778  60.7188
  0.776  60.7085
  0.774  60.6842
  0.772  60.7126
  0.770  60.7511
  0.768  60.7342
  0.766  60.7361
  0.764  60.7538
  0.762  60.7219
  0.760  60.6829
  0.758  60.7076
  0.756  60.6869
  0.754  60.7025
  0.752  60.6954
  0.750  60.7009
  0.748  60.7071
  0.746  60.6711
  0.744  60.6889
  0.742  60.6886
  0.740  60.6941
  0.738  60.6691
  0.736  60.6799
  0.734  60.6854
  0.732  60.6955
  0.730  60.6149
  0.728  60.6386
  0.726  60.6427
  0.724  60.6761
  0.722  60.6195
  0.720  60.5856
  0.718  60.5930
  0.716  60.5874
  0.714  60.5894
  0.712  60.5825
  0.710  60.5395
  0.708  60.5021
  0.706  60.4907
  0.704  60.4987
  0.702  60.4668
  0.700  60.4673
  0.698  60.4419
  0.696  60.4357
  0.694  60.3992
  0.692  60.3895
  0.690  60.4018
  0.688  60.3453
  0.686  60.3243
  0.684  60.3375
  0.682  60.3436
  0.680  60.3468
  0.678  60.3422
  0.676  60.3332
  0.674  60.3289
  0.672  60.3470
  0.670  60.3198
  0.668  60.3246
  0.666  60.3350
  0.664  60.3308
  0.662  60.3211
  0.660  60.3280
  0.658  60.3174
  0.656  60.3308
  0.654  60.3338
  0.652  60.2927
  0.650  60.2929
  0.648  60.2947
  0.646  60.3058
  0.644  60.2896
  0.642  60.2513
  0.640  60.2498
  0.638  60.2278
  0.636  60.2334
  0.634  60.2272
  0.632  60.2484
  0.630  60.2246
  0.628  60.2238
  0.626  60.2090
  0.624  60.1654
  0.622  60.2046
  0.620  60.1435
  0.618  60.1741
  0.616  60.1710
  0.614  60.1650
  0.612  60.1498
  0.610  60.1374
  0.608  60.1600
  0.606  60.1545
  0.604  60.1264
  0.602  60.1276
  0.600  60.1161
  0.598  60.0781
  0.596  60.1033
  0.594  60.0994
  0.592  60.0782
  0.590  60.0302
  0.588  60.0239
  0.586  60.0027
  0.584  59.9892
  0.582  59.9716
  0.580  59.9549
  0.578  59.9210
  0.576  59.9129
  0.574  59.8897
  0.572  59.8448
  0.570  59.8245
  0.568  59.8281
  0.566  59.7970
  0.564  59.7678
  0.562  59.7392
  0.560  59.7120
  0.558  59.6846
  0.556  59.6459
  0.554  59.6114
  0.552  59.5784
  0.550  59.5315
  0.548  59.5076
  0.546  59.4565
  0.544  59.4204
  0.542  59.3873
  0.540  59.3504
  0.538  59.3009
  0.536  59.2474
  0.534  59.2020
  0.532  59.1687
  0.530  59.1030
  0.528  59.0571
  0.526  59.0065
  0.524  58.9472
  0.522  58.8873
  0.520  58.8141
  0.518  58.7702
  0.516  58.7236
  0.514  58.6646
  0.512  58.6059
  0.510  58.5647
  0.508  58.4970
  0.506  58.4376
  0.504  58.3819
  0.502  58.3349
  0.500  58.2558
  0.498  58.1933
  0.496  58.1121
  0.494  58.0295
  0.492  57.9526
  0.490  57.8760
  0.488  57.7858
  0.486  57.7116
  0.484  57.6043
  0.482  57.5409
  0.480  57.4981
  0.478  57.4494
  0.476  57.3975
  0.474  57.3193
  0.472  57.2837
  0.470  57.2216
  0.468  57.1624
  0.466  57.0948
  0.464  57.0345
  0.462  56.9857
  0.460  56.9221
  0.458  56.8608
  0.456  56.7864
  0.454  56.6908
  0.452  56.5954
  0.450  56.4826
  0.448  56.3565
  0.446  56.2264
  0.444  56.0920
  0.442  55.9516
  0.440  55.8340
  0.438  55.7115
  0.436  55.5682
  0.434  55.4382
  0.432  55.3001
  0.430  55.1507
  0.428  55.0181
  0.426  54.8761
  0.424  54.7430
  0.422  54.6303
  0.420  54.5102
  0.418  54.3999
  0.416  54.2927
  0.414  54.1681
  0.412  54.0559
  0.410  53.9379
  0.408  53.8042
  0.406  53.6993
  0.404  53.6107
  0.402  53.4821
  0.400  53.3567
