Name: Gypsum CaSO4 * 2H2O
Type: Mineral
Class: Sulfate
Subclass: None
Particle Size: Unsieved coarse powder
Sample No.: None
Owner: USGS
Wavelength range: 0.40 - 14.05 um
Origin: Mesquite playa, California

Description: Gypsum from Mesquite Playa, CA





Measurement: Directional Hemispherical Reflectance
First Column: X
Second Column: Y
X Units: Wavelength (micrometers)
Y Units: Reflectance (percent)
First X Value: 14.05105
Last X Value: 0.40000
Number of X Values: 2756
Additional Information: None

 14.051   1.3184
 14.013   1.3287
 13.975   1.4111
 13.938   1.1948
 13.900   1.1742
 13.863   1.1227
 13.826   1.2154
 13.790   1.2154
 13.753   1.3699
 13.717   1.2772
 13.680   1.3493
 13.644   1.3184
 13.609   1.3699
 13.573   1.3699
 13.538   1.4111
 13.502   1.3596
 13.467   1.4214
 13.432   1.4214
 13.398   1.4729
 13.363   1.4729
 13.329   1.5553
 13.295   1.5347
 13.261   1.5347
 13.227   1.5141
 13.193   1.5759
 13.160   1.5141
 13.126   1.5656
 13.093   1.6171
 13.060   1.7098
 13.027   1.6480
 12.995   1.6274
 12.962   1.5553
 12.930   1.6995
 12.898   1.7304
 12.866   1.7510
 12.834   1.7304
 12.802   1.8025
 12.771   1.7716
 12.739   1.7819
 12.708   1.7201
 12.677   1.7613
 12.646   1.7819
 12.616   1.8334
 12.585   1.8231
 12.554   1.8952
 12.524   1.8643
 12.494   1.8746
 12.464   1.8231
 12.434   1.8746
 12.404   1.8643
 12.375   1.8952
 12.345   1.9364
 12.316   2.0291
 12.287   1.9673
 12.258   1.9879
 12.229   2.0188
 12.200   2.0291
 12.171   1.9673
 12.143   2.0188
 12.115   2.0394
 12.086   2.0806
 12.058   2.0085
 12.030   2.0703
 12.002   2.0600
 11.975   2.1012
 11.947   2.0806
 11.920   2.1527
 11.892   2.1218
 11.865   2.1527
 11.838   2.1321
 11.811   2.2145
 11.784   2.1630
 11.757   2.1630
 11.731   2.1424
 11.704   2.1733
 11.678   2.1424
 11.652   2.2351
 11.626   2.1939
 11.600   2.2763
 11.574   2.3175
 11.548   2.3587
 11.522   2.3175
 11.497   2.3587
 11.471   2.3896
 11.446   2.4617
 11.421   2.3896
 11.396   2.3587
 11.371   2.3072
 11.346   2.3690
 11.321   2.3484
 11.297   2.4102
 11.272   2.3896
 11.248   2.4720
 11.223   2.4205
 11.199   2.4514
 11.175   2.4823
 11.151   2.5029
 11.127   2.4205
 11.103   2.4617
 11.079   2.5029
 11.056   2.5750
 11.032   2.5235
 11.009   2.5235
 10.985   2.4720
 10.962   2.5132
 10.939   2.4823
 10.916   2.5132
 10.893   2.5132
 10.870   2.5647
 10.848   2.5750
 10.825   2.6265
 10.802   2.5956
 10.780   2.5956
 10.758   2.5853
 10.735   2.6059
 10.713   2.5338
 10.691   2.5750
 10.669   2.6059
 10.647   2.6677
 10.625   2.6780
 10.604   2.6986
 10.582   2.6986
 10.560   2.7192
 10.539   2.6986
 10.518   2.7398
 10.496   2.7192
 10.475   2.7501
 10.454   2.7604
 10.433   2.7810
 10.412   2.7398
 10.391   2.8222
 10.370   2.8222
 10.350   2.8119
 10.329   2.8016
 10.309   2.8325
 10.288   2.8428
 10.268   2.9149
 10.247   2.9046
 10.227   2.9046
 10.207   2.8428
 10.187   2.8840
 10.167   2.9252
 10.147   2.9973
 10.127   3.0076
 10.108   3.0179
 10.088   2.9870
 10.068   3.0282
 10.049   3.0591
 10.029   3.1209
 10.010   3.0694
  9.991   3.1209
  9.972   3.1106
  9.952   3.1312
  9.933   3.1106
  9.914   3.1827
  9.895   3.2857
  9.877   3.3475
  9.858   3.3269
  9.839   3.4093
  9.821   3.4402
  9.802   3.5020
  9.783   3.5329
  9.765   3.5741
  9.747   3.5844
  9.728   3.6256
  9.710   3.5638
  9.692   3.6462
  9.674   3.7183
  9.656   3.7904
  9.638   3.8007
  9.620   3.8419
  9.602   3.8419
  9.585   3.9449
  9.567   4.0273
  9.549   4.0994
  9.532   4.0685
  9.514   4.0685
  9.497   4.0685
  9.479   4.1818
  9.462   4.1921
  9.445   4.3054
  9.428   4.3466
  9.411   4.4290
  9.394   4.4599
  9.377   4.5423
  9.360   4.5835
  9.343   4.6968
  9.326   4.7895
  9.309   4.9234
  9.293   4.9646
  9.276   5.0882
  9.259   5.2015
  9.243   5.3457
  9.226   5.4693
  9.210   5.6650
  9.194   5.8298
  9.178   6.0873
  9.161   6.3139
  9.145   6.5611
  9.129   6.7877
  9.113   7.1585
  9.097   7.5293
  9.081   7.9104
  9.065   8.3327
  9.049   8.9095
  9.034   9.5584
  9.018  10.4236
  9.002  11.2167
  8.987  12.0922
  8.971  12.8647
  8.956  13.6166
  8.940  14.3067
  8.925  14.9968
  8.909  15.5427
  8.894  16.0474
  8.879  16.5418
  8.864  17.1083
  8.849  17.6439
  8.834  18.2207
  8.819  18.6945
  8.804  19.1477
  8.789  19.6112
  8.774  20.1468
  8.759  20.4970
  8.744  20.8369
  8.730  21.0944
  8.715  21.2592
  8.700  21.2901
  8.686  21.2798
  8.671  21.1871
  8.657  21.0738
  8.642  20.8575
  8.628  20.6515
  8.614  20.4249
  8.599  20.2086
  8.585  19.9614
  8.571  19.7039
  8.557  19.3331
  8.543  18.8078
  8.529  18.0456
  8.515  17.1083
  8.501  16.1092
  8.487  15.2131
  8.473  14.4303
  8.459  13.7608
  8.445  13.0707
  8.431  12.4115
  8.418  11.6081
  8.404  10.8974
  8.391  10.3103
  8.377   9.8468
  8.363   9.4142
  8.350   9.0743
  8.337   8.6932
  8.323   8.3533
  8.310   7.9104
  8.297   7.3439
  8.283   6.7156
  8.270   6.0976
  8.257   5.4590
  8.244   4.8101
  8.231   4.1612
  8.218   3.6771
  8.205   3.1930
  8.192   2.8016
  8.179   2.5029
  8.166   2.2145
  8.153   1.9261
  8.140   1.7613
  8.128   1.6274
  8.115   1.5347
  8.102   1.3699
  8.090   1.2772
  8.077   1.1948
  8.064   1.1330
  8.052   1.0300
  8.039   0.9888
  8.027   0.9373
  8.015   0.9064
  8.002   0.8137
  7.990   0.8137
  7.978   0.8137
  7.965   0.8034
  7.953   0.7622
  7.941   0.7416
  7.929   0.7210
  7.917   0.7416
  7.905   0.6798
  7.893   0.7210
  7.881   0.7107
  7.869   0.7210
  7.857   0.7107
  7.845   0.7107
  7.833   0.6798
  7.821   0.7107
  7.809   0.7004
  7.798   0.7416
  7.786   0.7931
  7.774   0.7931
  7.763   0.7313
  7.751   0.7828
  7.739   0.8137
  7.728   0.8446
  7.716   0.8549
  7.705   0.8446
  7.694   0.8034
  7.682   0.8549
  7.671   0.8652
  7.659   0.8961
  7.648   0.9167
  7.637   0.9476
  7.626   0.9476
  7.614   0.9785
  7.603   0.9991
  7.592   1.0094
  7.581   0.9682
  7.570   1.0300
  7.559   1.0094
  7.548   1.0197
  7.537   1.0506
  7.526   1.0815
  7.515   1.0712
  7.504   1.1124
  7.493   1.1124
  7.483   1.1330
  7.472   1.1536
  7.461   1.1845
  7.450   1.1845
  7.440   1.2154
  7.429   1.2257
  7.418   1.2978
  7.408   1.3390
  7.397   1.3081
  7.387   1.2978
  7.376   1.3596
  7.366   1.3596
  7.355   1.3802
  7.345   1.3802
  7.334   1.3802
  7.324   1.3905
  7.314   1.4729
  7.303   1.5244
  7.293   1.5553
  7.283   1.5141
  7.273   1.4935
  7.263   1.5450
  7.252   1.6171
  7.242   1.6068
  7.232   1.6377
  7.222   1.6274
  7.212   1.6377
  7.202   1.6171
  7.192   1.6583
  7.182   1.6892
  7.172   1.7510
  7.162   1.7407
  7.152   1.7098
  7.143   1.7304
  7.133   1.7819
  7.123   1.7510
  7.113   1.7304
  7.103   1.7098
  7.094   1.7407
  7.084   1.7819
  7.074   1.8025
  7.065   1.7819
  7.055   1.8231
  7.046   1.8437
  7.036   1.9055
  7.026   1.9467
  7.017   1.9879
  7.007   1.9776
  6.998   1.9776
  6.989   1.9776
  6.979   1.9673
  6.970   1.9776
  6.960   1.9776
  6.951   1.9467
  6.942   1.9982
  6.932   2.0188
  6.923   2.0291
  6.914   2.0085
  6.905   2.0394
  6.896   2.0394
  6.886   2.0188
  6.877   2.0085
  6.868   2.0394
  6.859   2.0188
  6.850   2.0600
  6.841   2.1012
  6.832   2.1424
  6.823   2.1424
  6.814   2.1424
  6.805   2.1321
  6.796   2.1527
  6.787   2.1218
  6.778   2.1218
  6.770   2.1218
  6.761   2.1527
  6.752   2.1733
  6.743   2.2042
  6.734   2.2248
  6.726   2.2557
  6.717   2.2763
  6.708   2.2763
  6.700   2.2660
  6.691   2.2763
  6.682   2.2660
  6.674   2.2763
  6.665   2.2969
  6.657   2.3175
  6.648   2.3175
  6.640   2.3587
  6.631   2.3484
  6.623   2.3690
  6.614   2.3278
  6.606   2.3381
  6.597   2.3484
  6.589   2.3175
  6.581   2.3072
  6.572   2.3175
  6.564   2.3278
  6.556   2.3587
  6.547   2.3381
  6.539   2.3587
  6.531   2.3278
  6.523   2.3484
  6.514   2.3381
  6.506   2.3278
  6.498   2.3484
  6.490   2.3484
  6.482   2.3381
  6.474   2.3175
  6.466   2.3072
  6.458   2.3381
  6.450   2.3278
  6.442   2.3278
  6.434   2.3072
  6.426   2.3278
  6.418   2.3278
  6.410   2.3278
  6.402   2.3072
  6.394   2.3278
  6.386   2.3381
  6.378   2.3587
  6.370   2.3278
  6.363   2.3175
  6.355   2.2763
  6.347   2.2866
  6.339   2.2763
  6.332   2.2454
  6.324   2.2557
  6.316   2.2969
  6.308   2.2969
  6.301   2.2969
  6.293   2.2454
  6.286   2.2557
  6.278   2.2763
  6.270   2.2969
  6.263   2.2763
  6.255   2.2660
  6.248   2.2763
  6.240   2.3175
  6.233   2.3175
  6.225   2.3278
  6.218   2.3175
  6.210   2.3896
  6.203   2.4926
  6.195   2.6059
  6.188   2.6986
  6.181   2.8737
  6.173   3.0797
  6.166   3.2136
  6.159   3.2033
  6.151   2.9561
  6.144   2.5441
  6.137   2.1424
  6.130   1.7716
  6.122   1.5141
  6.115   1.3596
  6.108   1.2978
  6.101   1.2772
  6.094   1.3287
  6.086   1.3493
  6.079   1.4008
  6.072   1.4317
  6.065   1.4523
  6.058   1.4729
  6.051   1.5347
  6.044   1.5965
  6.037   1.5965
  6.030   1.5862
  6.023   1.6274
  6.016   1.6480
  6.009   1.6686
  6.002   1.6789
  5.995   1.6892
  5.988   1.6480
  5.981   1.6583
  5.974   1.6789
  5.967   1.6583
  5.960   1.6274
  5.954   1.6377
  5.947   1.6274
  5.940   1.5965
  5.933   1.5450
  5.926   1.5553
  5.920   1.5862
  5.913   1.6480
  5.906   1.6789
  5.899   1.7510
  5.893   1.8128
  5.886   1.8540
  5.879   1.8746
  5.873   1.9570
  5.866   2.0188
  5.859   2.0394
  5.853   2.1115
  5.846   2.1939
  5.840   2.2351
  5.833   2.2454
  5.827   2.2557
  5.820   2.2969
  5.813   2.3381
  5.807   2.3793
  5.800   2.4205
  5.794   2.4308
  5.788   2.4411
  5.781   2.4720
  5.775   2.4823
  5.768   2.5029
  5.762   2.5338
  5.755   2.6265
  5.749   2.6574
  5.743   2.6677
  5.736   2.7089
  5.730   2.7501
  5.724   2.7810
  5.717   2.8119
  5.711   2.8325
  5.705   2.8737
  5.698   2.9046
  5.692   2.9458
  5.686   2.9973
  5.680   3.0900
  5.674   3.1003
  5.667   3.1209
  5.661   3.1312
  5.655   3.1621
  5.649   3.1621
  5.643   3.2033
  5.637   3.2548
  5.630   3.2857
  5.624   3.2960
  5.618   3.3475
  5.612   3.3784
  5.606   3.4196
  5.600   3.4299
  5.594   3.4608
  5.588   3.5123
  5.582   3.5638
  5.576   3.5535
  5.570   3.5844
  5.564   3.6050
  5.558   3.6359
  5.552   3.6668
  5.546   3.6874
  5.540   3.7389
  5.534   3.8007
  5.528   3.8728
  5.523   3.9552
  5.517   3.9861
  5.511   4.0479
  5.505   4.1200
  5.499   4.1612
  5.493   4.2127
  5.487   4.2436
  5.482   4.3054
  5.476   4.3775
  5.470   4.4393
  5.464   4.5114
  5.459   4.5732
  5.453   4.6453
  5.447   4.7071
  5.441   4.7586
  5.436   4.7792
  5.430   4.8204
  5.424   4.8307
  5.419   4.8410
  5.413   4.8616
  5.407   4.9234
  5.402   4.9852
  5.396   4.9955
  5.390   5.0058
  5.385   5.0264
  5.379   5.0470
  5.374   5.0779
  5.368   5.0882
  5.363   5.0985
  5.357   5.0779
  5.352   5.0779
  5.346   5.1191
  5.341   5.1809
  5.335   5.2118
  5.330   5.2015
  5.324   5.1912
  5.319   5.2530
  5.313   5.2839
  5.308   5.2839
  5.302   5.3045
  5.297   5.3354
  5.291   5.3354
  5.286   5.3457
  5.281   5.3869
  5.275   5.4178
  5.270   5.4178
  5.265   5.4590
  5.259   5.5311
  5.254   5.5414
  5.249   5.5414
  5.243   5.5620
  5.238   5.5723
  5.233   5.5929
  5.227   5.6341
  5.222   5.6341
  5.217   5.6135
  5.212   5.6135
  5.206   5.6135
  5.201   5.6238
  5.196   5.6135
  5.191   5.6238
  5.186   5.5929
  5.180   5.5414
  5.175   5.5414
  5.170   5.5414
  5.165   5.5517
  5.160   5.5311
  5.155   5.5002
  5.150   5.4796
  5.145   5.4693
  5.139   5.4899
  5.134   5.4693
  5.129   5.4384
  5.124   5.4178
  5.119   5.3972
  5.114   5.3766
  5.109   5.3972
  5.104   5.3972
  5.099   5.3766
  5.094   5.3663
  5.089   5.3663
  5.084   5.3766
  5.079   5.3560
  5.074   5.3457
  5.069   5.2942
  5.064   5.2736
  5.059   5.2839
  5.054   5.2942
  5.049   5.2942
  5.044   5.2839
  5.040   5.2942
  5.035   5.3148
  5.030   5.3251
  5.025   5.3251
  5.020   5.3251
  5.015   5.3251
  5.010   5.3148
  5.005   5.3045
  5.001   5.3045
  4.996   5.3148
  4.991   5.3045
  4.986   5.2530
  4.981   5.1912
  4.977   5.1603
  4.972   5.1294
  4.967   5.1294
  4.962   5.1706
  4.958   5.2015
  4.953   5.2324
  4.948   5.2427
  4.943   5.2530
  4.939   5.2324
  4.934   5.2324
  4.929   5.2221
  4.925   5.1809
  4.920   5.1294
  4.915   5.1397
  4.911   5.1500
  4.906   5.1397
  4.901   5.0676
  4.897   5.0058
  4.892   4.9749
  4.888   4.9543
  4.883   4.8822
  4.878   4.8513
  4.874   4.8513
  4.869   4.8513
  4.865   4.8101
  4.860   4.7792
  4.856   4.7277
  4.851   4.6762
  4.846   4.6350
  4.842   4.5938
  4.837   4.5835
  4.833   4.5526
  4.828   4.4908
  4.824   4.4393
  4.819   4.3775
  4.815   4.3672
  4.810   4.3363
  4.806   4.2436
  4.802   4.1509
  4.797   4.0788
  4.793   4.0067
  4.788   3.8934
  4.784   3.7904
  4.779   3.7183
  4.775   3.6153
  4.771   3.5226
  4.766   3.4093
  4.762   3.2857
  4.758   3.1930
  4.753   3.1312
  4.749   3.0385
  4.744   2.9355
  4.740   2.8943
  4.736   2.8222
  4.731   2.7398
  4.727   2.7089
  4.723   2.7192
  4.719   2.6986
  4.714   2.6883
  4.710   2.7089
  4.706   2.6780
  4.701   2.6883
  4.697   2.7192
  4.693   2.7089
  4.689   2.7398
  4.684   2.7707
  4.680   2.7604
  4.676   2.7398
  4.672   2.7501
  4.668   2.7810
  4.663   2.8016
  4.659   2.8119
  4.655   2.8222
  4.651   2.8634
  4.647   2.9149
  4.643   2.9355
  4.638   2.9149
  4.634   2.9149
  4.630   2.9046
  4.626   2.9355
  4.622   2.9252
  4.618   2.9561
  4.614   2.9458
  4.610   2.9252
  4.605   2.9355
  4.601   2.8737
  4.597   2.8222
  4.593   2.8119
  4.589   2.7604
  4.585   2.7398
  4.581   2.7604
  4.577   2.7295
  4.573   2.6986
  4.569   2.6883
  4.565   2.6780
  4.561   2.6574
  4.557   2.6265
  4.553   2.5956
  4.549   2.5029
  4.545   2.4514
  4.541   2.4720
  4.537   2.5029
  4.533   2.5750
  4.529   2.5750
  4.525   2.5956
  4.521   2.5750
  4.517   2.5235
  4.513   2.5441
  4.509   2.5441
  4.505   2.5235
  4.502   2.5029
  4.498   2.5029
  4.494   2.5647
  4.490   2.5338
  4.486   2.5132
  4.482   2.5338
  4.478   2.5338
  4.474   2.5441
  4.470   2.5132
  4.467   2.4514
  4.463   2.4823
  4.459   2.5132
  4.455   2.5441
  4.451   2.5853
  4.447   2.5647
  4.444   2.5544
  4.440   2.6059
  4.436   2.5956
  4.432   2.5956
  4.428   2.6368
  4.425   2.6780
  4.421   2.6780
  4.417   2.7192
  4.413   2.7501
  4.410   2.7707
  4.406   2.7913
  4.402   2.8222
  4.398   2.8634
  4.395   2.8840
  4.391   2.8943
  4.387   2.9252
  4.384   2.9252
  4.380   2.9561
  4.376   2.9767
  4.372   2.9561
  4.369   2.9767
  4.365   3.0385
  4.361   3.0385
  4.358   3.0488
  4.354   3.0591
  4.350   3.1209
  4.347   3.1621
  4.343   3.2033
  4.340   3.2342
  4.336   3.2651
  4.332   3.2754
  4.329   3.3475
  4.325   3.3887
  4.321   3.3887
  4.318   3.4299
  4.314   3.5020
  4.311   3.5741
  4.307   3.6462
  4.304   3.7286
  4.300   3.8007
  4.296   3.8419
  4.293   3.9243
  4.289   3.9964
  4.286   4.0376
  4.282   4.0273
  4.279   4.1303
  4.275   4.3054
  4.272   4.3878
  4.268   4.4084
  4.265   4.4805
  4.261   4.5320
  4.258   4.5732
  4.254   4.6453
  4.251   4.7277
  4.247   4.7792
  4.244   4.8410
  4.240   4.9234
  4.237   4.9749
  4.233   5.0367
  4.230   5.1397
  4.226   5.2530
  4.223   5.3560
  4.219   5.3972
  4.216   5.4590
  4.213   5.5208
  4.209   5.5517
  4.206   5.6238
  4.202   5.7268
  4.199   5.7989
  4.196   5.8607
  4.192   5.9019
  4.189   5.9946
  4.185   6.0976
  4.182   6.1182
  4.179   6.1697
  4.175   6.2418
  4.172   6.2933
  4.169   6.4375
  4.165   6.4684
  4.162   6.5199
  4.159   6.6126
  4.155   6.6744
  4.152   6.7671
  4.149   6.8804
  4.145   6.9319
  4.142   6.9834
  4.139   6.9937
  4.135   7.0349
  4.132   7.1482
  4.129   7.2203
  4.126   7.3130
  4.122   7.4057
  4.119   7.4675
  4.116   7.5190
  4.112   7.5396
  4.109   7.5911
  4.106   7.6735
  4.103   7.8280
  4.099   7.9619
  4.096   8.0443
  4.093   8.0649
  4.090   8.0958
  4.086   8.1576
  4.083   8.2709
  4.080   8.3224
  4.077   8.4151
  4.074   8.5387
  4.070   8.6623
  4.067   8.6829
  4.064   8.7241
  4.061   8.8477
  4.058   8.9610
  4.055   9.0331
  4.051   9.0949
  4.048   9.1567
  4.045   9.2700
  4.042   9.3730
  4.039   9.4863
  4.036   9.5584
  4.032   9.5996
  4.029   9.6923
  4.026   9.7541
  4.023   9.8056
  4.020   9.8777
  4.017   9.9395
  4.014  10.0322
  4.011  10.1249
  4.008  10.1970
  4.004  10.1764
  4.001  10.1661
  3.998  10.1764
  3.995  10.2279
  3.992  10.2485
  3.989  10.2794
  3.986  10.2279
  3.983  10.0837
  3.980   9.9086
  3.977   9.7747
  3.974   9.7232
  3.971   9.6717
  3.968   9.7747
  3.965  10.1146
  3.962  10.2897
  3.959  10.3515
  3.956  10.5060
  3.953  10.7120
  3.950  10.8768
  3.947  11.0416
  3.944  11.1137
  3.941  11.1961
  3.938  11.3300
  3.935  11.3815
  3.932  11.5051
  3.929  11.6596
  3.926  11.6802
  3.923  11.7111
  3.920  11.7729
  3.917  11.9274
  3.914  11.9995
  3.911  12.0510
  3.908  12.1231
  3.905  12.1952
  3.902  12.2364
  3.899  12.2982
  3.896  12.3497
  3.893  12.4424
  3.890  12.4012
  3.887  12.3085
  3.884  12.2158
  3.882  12.1746
  3.879  12.0098
  3.876  11.8244
  3.873  11.7317
  3.870  11.7626
  3.867  11.9686
  3.864  12.2570
  3.861  12.4321
  3.858  12.5866
  3.856  12.7823
  3.853  12.9883
  3.850  13.0295
  3.847  13.0604
  3.844  13.0913
  3.841  13.1222
  3.838  13.1737
  3.836  13.1943
  3.833  13.1634
  3.830  13.2149
  3.827  13.2252
  3.824  13.2355
  3.822  13.2561
  3.819  13.3076
  3.816  13.3591
  3.813  13.3076
  3.810  13.2149
  3.807  13.2252
  3.805  13.2046
  3.802  13.1840
  3.799  13.2046
  3.796  13.2252
  3.794  13.2149
  3.791  13.2149
  3.788  13.2355
  3.785  13.2767
  3.782  13.2355
  3.780  13.2664
  3.777  13.3282
  3.774  13.3591
  3.771  13.3591
  3.769  13.3385
  3.766  13.2973
  3.763  13.3591
  3.761  13.4003
  3.758  13.3488
  3.755  13.3385
  3.752  13.3694
  3.750  13.3179
  3.747  13.2458
  3.744  13.2561
  3.742  13.2973
  3.739  13.2561
  3.736  13.2355
  3.733  13.1943
  3.731  13.1840
  3.728  13.1943
  3.725  13.2046
  3.723  13.1325
  3.720  13.1119
  3.717  13.1531
  3.715  13.1737
  3.712  13.1428
  3.709  13.1531
  3.707  13.1222
  3.704  13.1119
  3.702  13.1222
  3.699  13.1325
  3.696  13.0707
  3.694  12.9883
  3.691  12.9677
  3.688  12.9677
  3.686  12.8853
  3.683  12.8132
  3.680  12.7823
  3.678  12.7617
  3.675  12.7205
  3.673  12.6793
  3.670  12.6484
  3.667  12.6175
  3.665  12.5351
  3.662  12.5351
  3.660  12.5145
  3.657  12.3703
  3.655  12.2261
  3.652  12.2364
  3.649  12.2364
  3.647  12.1437
  3.644  12.0407
  3.642  11.9480
  3.639  11.8656
  3.637  11.8553
  3.634  11.7729
  3.632  11.7008
  3.629  11.6184
  3.626  11.5978
  3.624  11.5669
  3.621  11.5875
  3.619  11.4948
  3.616  11.3609
  3.614  11.2785
  3.611  11.2064
  3.609  11.1034
  3.606  11.0931
  3.604  11.0313
  3.601  10.9386
  3.599  10.9077
  3.596  10.8665
  3.594  10.7326
  3.591  10.6605
  3.589  10.6296
  3.586  10.5678
  3.584  10.4236
  3.581  10.3721
  3.579  10.3515
  3.576  10.3618
  3.574  10.3412
  3.571  10.3000
  3.569  10.1970
  3.567  10.1146
  3.564  10.0116
  3.562   9.9395
  3.559   9.8983
  3.557   9.8880
  3.554   9.8468
  3.552   9.8159
  3.549   9.7644
  3.547   9.7541
  3.545   9.7541
  3.542   9.6923
  3.540   9.5893
  3.537   9.5378
  3.535   9.5584
  3.533   9.5378
  3.530   9.4451
  3.528   9.4348
  3.525   9.4245
  3.523   9.3421
  3.521   9.2700
  3.518   9.2288
  3.516   9.1258
  3.513   9.0949
  3.511   9.0537
  3.509   8.9404
  3.506   8.8271
  3.504   8.8065
  3.502   8.8065
  3.499   8.7756
  3.497   8.6314
  3.494   8.6005
  3.492   8.5696
  3.490   8.5181
  3.487   8.4975
  3.485   8.4872
  3.483   8.4048
  3.480   8.4254
  3.478   8.4357
  3.476   8.3739
  3.473   8.2709
  3.471   8.2503
  3.469   8.2297
  3.466   8.2194
  3.464   8.1576
  3.462   8.0443
  3.460   7.9516
  3.457   7.9516
  3.455   7.9104
  3.453   7.8589
  3.450   7.8383
  3.448   7.8177
  3.446   7.7662
  3.443   7.7147
  3.441   7.6426
  3.439   7.6117
  3.437   7.5499
  3.434   7.4881
  3.432   7.4057
  3.430   7.3542
  3.428   7.2924
  3.425   7.2409
  3.423   7.2306
  3.421   7.2306
  3.418   7.1482
  3.416   7.0967
  3.414   7.1276
  3.412   7.1688
  3.409   7.1276
  3.407   7.0040
  3.405   6.9010
  3.403   6.8701
  3.401   6.8495
  3.398   6.8701
  3.396   6.8907
  3.394   6.8907
  3.392   6.8804
  3.389   6.8495
  3.387   6.7259
  3.385   6.6641
  3.383   6.6435
  3.381   6.6332
  3.378   6.5199
  3.376   6.4581
  3.374   6.4066
  3.372   6.3860
  3.370   6.3345
  3.367   6.3139
  3.365   6.2727
  3.363   6.2418
  3.361   6.2109
  3.359   6.1594
  3.357   6.0873
  3.354   6.0770
  3.352   6.0976
  3.350   6.0873
  3.348   5.9740
  3.346   5.9946
  3.344   6.0152
  3.341   5.9534
  3.339   5.8916
  3.337   5.9122
  3.335   5.8092
  3.333   5.7268
  3.331   5.7062
  3.329   5.6547
  3.326   5.6238
  3.324   5.6650
  3.322   5.6032
  3.320   5.5517
  3.318   5.5208
  3.316   5.4590
  3.314   5.4281
  3.312   5.3972
  3.309   5.3972
  3.307   5.3766
  3.305   5.2530
  3.303   5.2427
  3.301   5.2427
  3.299   5.2427
  3.297   5.1809
  3.295   5.0985
  3.293   5.0573
  3.291   5.0264
  3.288   4.9749
  3.286   4.8925
  3.284   4.8410
  3.282   4.8513
  3.280   4.8410
  3.278   4.8513
  3.276   4.8101
  3.274   4.8101
  3.272   4.7895
  3.270   4.7277
  3.268   4.6659
  3.266   4.6453
  3.264   4.5938
  3.262   4.5938
  3.259   4.5320
  3.257   4.5114
  3.255   4.4599
  3.253   4.4187
  3.251   4.3775
  3.249   4.4393
  3.247   4.4599
  3.245   4.4393
  3.243   4.3878
  3.241   4.3466
  3.239   4.2848
  3.237   4.2745
  3.235   4.2230
  3.233   4.1921
  3.231   4.1715
  3.229   4.1818
  3.227   4.1509
  3.225   4.1715
  3.223   4.1097
  3.221   4.1200
  3.219   4.0788
  3.217   3.9861
  3.215   3.9037
  3.213   3.9346
  3.211   3.9655
  3.209   3.9655
  3.207   3.9449
  3.205   3.9140
  3.203   3.9243
  3.201   3.9140
  3.199   3.8316
  3.197   3.7904
  3.195   3.7492
  3.193   3.7080
  3.191   3.6462
  3.189   3.6771
  3.187   3.7080
  3.185   3.6874
  3.183   3.6153
  3.182   3.5947
  3.180   3.6153
  3.178   3.6668
  3.176   3.5741
  3.174   3.5638
  3.172   3.5638
  3.170   3.5432
  3.168   3.4505
  3.166   3.3990
  3.164   3.3784
  3.162   3.3784
  3.160   3.3681
  3.158   3.3166
  3.156   3.1930
  3.154   3.1827
  3.152   3.1827
  3.151   3.1621
  3.149   3.1415
  3.147   3.2136
  3.145   3.2445
  3.143   3.2033
  3.141   3.1003
  3.139   3.0488
  3.137   2.9973
  3.135   3.0694
  3.133   3.0591
  3.132   3.0385
  3.130   3.0282
  3.128   3.0385
  3.126   2.9767
  3.124   2.9149
  3.122   2.8634
  3.120   2.9046
  3.118   2.9149
  3.117   3.0076
  3.115   2.9870
  3.113   2.8943
  3.111   2.8531
  3.109   2.8737
  3.107   2.8737
  3.105   2.8325
  3.103   2.8016
  3.102   2.8428
  3.100   2.8531
  3.098   2.8428
  3.096   2.7810
  3.094   2.7707
  3.092   2.7810
  3.091   2.8222
  3.089   2.8119
  3.087   2.7398
  3.085   2.5647
  3.083   2.4823
  3.081   2.4514
  3.079   2.5029
  3.078   2.5029
  3.076   2.5132
  3.074   2.5544
  3.072   2.6059
  3.070   2.6059
  3.069   2.5750
  3.067   2.5132
  3.065   2.4926
  3.063   2.5235
  3.061   2.5029
  3.060   2.4514
  3.058   2.4720
  3.056   2.4720
  3.054   2.5235
  3.052   2.5544
  3.051   2.6265
  3.049   2.5853
  3.047   2.5132
  3.045   2.4720
  3.043   2.5544
  3.042   2.5853
  3.040   2.5338
  3.038   2.4926
  3.036   2.5441
  3.034   2.4823
  3.033   2.4102
  3.031   2.3999
  3.029   2.5029
  3.027   2.5750
  3.026   2.6471
  3.024   2.6574
  3.022   2.6059
  3.020   2.5338
  3.019   2.5235
  3.017   2.4926
  3.015   2.5544
  3.013   2.5853
  3.012   2.5441
  3.010   2.5132
  3.008   2.5750
  3.006   2.6059
  3.005   2.6471
  3.003   2.5956
  3.001   2.5956
  2.999   2.5544
  2.998   2.5132
  2.996   2.4926
  2.994   2.5235
  2.992   2.4823
  2.991   2.5544
  2.989   2.6574
  2.987   2.6574
  2.986   2.5235
  2.984   2.5132
  2.982   2.5544
  2.980   2.6986
  2.979   2.6368
  2.977   2.5750
  2.975   2.5853
  2.974   2.7192
  2.972   2.7707
  2.970   2.7707
  2.968   2.7501
  2.967   2.8222
  2.965   2.8222
  2.963   2.9046
  2.962   3.0282
  2.960   3.1003
  2.958   3.0488
  2.957   3.1106
  2.955   3.2342
  2.953   3.3475
  2.952   3.2857
  2.950   3.3063
  2.948   3.4917
  2.947   3.7286
  2.945   3.8213
  2.943   3.8625
  2.942   3.8110
  2.940   3.8316
  2.938   3.9758
  2.937   4.0788
  2.935   4.1200
  2.933   4.1303
  2.932   4.0994
  2.930   4.1097
  2.928   3.9758
  2.927   3.8831
  2.925   3.8316
  2.923   3.6050
  2.922   3.4093
  2.920   3.3681
  2.918   3.1518
  2.917   2.9355
  2.915   2.7192
  2.913   2.5544
  2.912   2.3690
  2.910   2.1527
  2.909   2.0188
  2.907   2.0291
  2.905   1.9879
  2.904   1.9982
  2.902   1.9673
  2.900   1.8128
  2.899   1.6892
  2.897   1.7304
  2.896   1.5656
  2.894   1.5347
  2.892   1.6377
  2.891   1.6068
  2.889   1.4111
  2.887   1.4111
  2.886   1.4523
  2.884   1.5347
  2.883   1.3493
  2.881   1.2566
  2.879   1.4420
  2.878   1.5553
  2.876   1.5450
  2.875   1.5656
  2.873   1.5759
  2.871   1.5450
  2.870   1.3905
  2.868   1.3390
  2.867   1.3287
  2.865   1.3699
  2.864   1.3081
  2.862   1.3699
  2.860   1.4214
  2.859   1.5141
  2.857   1.6171
  2.856   1.7304
  2.854   1.6377
  2.853   1.5553
  2.851   1.4008
  2.849   1.3802
  2.848   1.3802
  2.846   1.4523
  2.845   1.4935
  2.843   1.6583
  2.842   1.6583
  2.840   1.7098
  2.838   1.7304
  2.837   1.7201
  2.835   1.7613
  2.834   1.8849
  2.832   1.8849
  2.831   1.7304
  2.829   1.6789
  2.828   1.7922
  2.826   1.9467
  2.825   1.9570
  2.823   1.8231
  2.821   1.8437
  2.820   1.8643
  2.818   1.9982
  2.817   1.9261
  2.815   1.8334
  2.814   1.8540
  2.812   1.9055
  2.811   1.7613
  2.809   1.6068
  2.808   1.4832
  2.806   1.5656
  2.805   1.5656
  2.803   1.5862
  2.802   1.6068
  2.800   1.6789
  2.799   1.6480
  2.797   1.6583
  2.796   1.5553
  2.794   1.5862
  2.793   1.7613
  2.791   1.7819
  2.790   1.6583
  2.788   1.6274
  2.787   1.5553
  2.785   1.6583
  2.784   1.6274
  2.782   1.6480
  2.781   1.6377
  2.779   1.5450
  2.778   1.4832
  2.776   1.5862
  2.775   1.5450
  2.773   1.5450
  2.772   1.5553
  2.770   1.6068
  2.769   1.6068
  2.767   1.5862
  2.766   1.6068
  2.764   1.7922
  2.763   1.8540
  2.761   1.8746
  2.760   1.8025
  2.758   1.8746
  2.757   1.9467
  2.756   1.8437
  2.754   1.8128
  2.753   1.9055
  2.751   1.9364
  2.750   2.0085
  2.748   1.8746
  2.747   1.9261
  2.745   2.0188
  2.744   2.0703
  2.742   2.2248
  2.741   2.4617
  2.740   2.3999
  2.738   2.2454
  2.737   2.2660
  2.735   2.3587
  2.734   2.3690
  2.732   2.3587
  2.731   2.3484
  2.729   2.4926
  2.728   2.5853
  2.727   2.6265
  2.725   2.5132
  2.724   2.4823
  2.722   2.5956
  2.721   2.7501
  2.719   2.6780
  2.718   2.6471
  2.717   2.7810
  2.715   2.8531
  2.714   2.8634
  2.712   2.9767
  2.711   3.0076
  2.709   3.0591
  2.708   3.0591
  2.707   3.1724
  2.705   3.2548
  2.704   3.3063
  2.702   3.2651
  2.701   3.3578
  2.700   3.5329
  2.698   3.6153
  2.697   3.4608
  2.695   3.5844
  2.694   3.6977
  2.693   3.8007
  2.691   3.8831
  2.690   3.9964
  2.688   3.9449
  2.687   3.9861
  2.686   4.1303
  2.684   4.3054
  2.683   4.2333
  2.681   4.1715
  2.680   4.1200
  2.679   4.4084
  2.677   4.4599
  2.676   4.4290
  2.675   4.5629
  2.673   4.7277
  2.672   4.6762
  2.670   4.7277
  2.669   4.8101
  2.668   4.7998
  2.666   4.7998
  2.665   4.9234
  2.664   4.9131
  2.662   4.9028
  2.661   4.7483
  2.659   4.8822
  2.658   5.1191
  2.657   5.2633
  2.655   5.1809
  2.654   5.1088
  2.653   5.2324
  2.651   5.4693
  2.650   5.4487
  2.649   5.5414
  2.647   5.4693
  2.646   5.4384
  2.645   5.5826
  2.643   5.7886
  2.642   5.8298
  2.640   5.7680
  2.639   5.5826
  2.638   5.5002
  2.636   5.5723
  2.635   5.7268
  2.634   5.8195
  2.632   5.9946
  2.631   5.9946
  2.630   5.7268
  2.628   5.6959
  2.627   5.7886
  2.626   5.7989
  2.624   5.8916
  2.623   5.7989
  2.622   5.9019
  2.620   5.9225
  2.619   5.8916
  2.618   5.7886
  2.617   5.8710
  2.615   5.9843
  2.614   6.0976
  2.613   6.1285
  2.611   5.9946
  2.610   6.0255
  2.609   6.0358
  2.607   6.0152
  2.606   6.0564
  2.605   5.9843
  2.603   5.9946
  2.602   6.0049
  2.601   6.0667
  2.599   6.1182
  2.598   6.1800
  2.597   6.0976
  2.596   5.9740
  2.594   6.0358
  2.593   6.0461
  2.592   6.1594
  2.590   6.3551
  2.589   6.2109
  2.588   6.2315
  2.586   6.3654
  2.585   6.4169
  2.584   6.4478
  2.583   6.3448
  2.581   6.0358
  2.580   6.0667
  2.579   6.1903
  2.577   6.3654
  2.576   6.2830
  2.575   6.1182
  2.574   5.9740
  2.572   6.0564
  2.571   6.1594
  2.570   6.2109
  2.569   6.1491
  2.567   6.1285
  2.566   6.2006
  2.565   6.3242
  2.563   6.2624
  2.562   6.2727
  2.561   6.3139
  2.560   6.3654
  2.558   6.3551
  2.557   6.3551
  2.556   6.3139
  2.555   6.2418
  2.553   6.1594
  2.552   6.3551
  2.551   6.5714
  2.550   6.6126
  2.548   6.4169
  2.547   6.3448
  2.546   6.4478
  2.545   6.5611
  2.543   6.5199
  2.542   6.6538
  2.541   6.6538
  2.540   6.4787
  2.538   6.4581
  2.537   6.6126
  2.536   6.5611
  2.535   6.5199
  2.533   6.3963
  2.532   6.3860
  2.531   6.5817
  2.530   6.7465
  2.528   6.6744
  2.527   6.7156
  2.526   6.5405
  2.525   6.3345
  2.524   6.3139
  2.522   6.3345
  2.521   6.2624
  2.520   6.2006
  2.519   6.3345
  2.517   6.4993
  2.516   6.2418
  2.515   6.2315
  2.514   6.4581
  2.513   6.3963
  2.511   6.2212
  2.510   6.3654
  2.509   6.3036
  2.508   6.1800
  2.506   6.2727
  2.505   6.3551
  2.504   6.0564
  2.503   5.9637
  2.502   6.0564
  2.500   6.2315
  2.500   6.2315
  2.498   6.1252
  2.496   6.0360
  2.494   6.1274
  2.492   6.1918
  2.490   6.0663
  2.488   6.1160
  2.486   6.2623
  2.484   6.2298
  2.482   6.3641
  2.480   6.3145
  2.478   6.2922
  2.476   6.4031
  2.474   6.4995
  2.472   6.3225
  2.470   6.5721
  2.468   6.2817
  2.466   6.5579
  2.464   6.7013
  2.462   6.7290
  2.460   6.6553
  2.458   6.7745
  2.456   6.7955
  2.454   6.8240
  2.452   6.8809
  2.450   6.7558
  2.448   6.7738
  2.446   6.9189
  2.444   6.9116
  2.442   7.0073
  2.440   7.1582
  2.438   7.0578
  2.436   7.0461
  2.434   7.2112
  2.432   7.2371
  2.430   7.3663
  2.428   7.3321
  2.426   7.3874
  2.424   7.6251
  2.422   7.7359
  2.420   7.7132
  2.418   7.8742
  2.416   8.1397
  2.414   8.1409
  2.412   8.3582
  2.410   8.3976
  2.408   8.6894
  2.406   8.9339
  2.404   9.2289
  2.402   9.3939
  2.400   9.5616
  2.398   9.7988
  2.396  10.0910
  2.394  10.3196
  2.392  10.5530
  2.390  10.8456
  2.388  11.1257
  2.386  11.3729
  2.384  11.5316
  2.382  11.8600
  2.380  12.0567
  2.378  12.2218
  2.376  12.5436
  2.374  12.8428
  2.372  12.9139
  2.370  13.1272
  2.368  13.4682
  2.366  13.5344
  2.364  13.8005
  2.362  14.0494
  2.360  14.0828
  2.358  14.2912
  2.356  14.3972
  2.354  14.5183
  2.352  14.7142
  2.350  14.7596
  2.348  14.9382
  2.346  15.0884
  2.344  15.0997
  2.342  15.2942
  2.340  15.3902
  2.338  15.4947
  2.336  15.4991
  2.334  15.5788
  2.332  15.6527
  2.330  15.7175
  2.328  15.7375
  2.326  15.7228
  2.324  15.7147
  2.322  15.7772
  2.320  15.7739
  2.318  15.8666
  2.316  15.8006
  2.314  15.6811
  2.312  15.6923
  2.310  15.7081
  2.308  15.6953
  2.306  15.6434
  2.304  15.5712
  2.302  15.5379
  2.300  15.5441
  2.298  15.3586
  2.296  15.3109
  2.294  15.1573
  2.292  15.0144
  2.290  14.9038
  2.288  14.7966
  2.286  14.6159
  2.284  14.3870
  2.282  14.2436
  2.280  14.0952
  2.278  13.9450
  2.276  13.8208
  2.274  13.8204
  2.272  13.7619
  2.270  13.8099
  2.268  13.8108
  2.266  13.9994
  2.264  14.0753
  2.262  14.0356
  2.260  14.1653
  2.258  14.2367
  2.256  14.3053
  2.254  14.2896
  2.252  14.2987
  2.250  14.2760
  2.248  14.2165
  2.246  14.1617
  2.244  14.1785
  2.242  14.1217
  2.240  14.0380
  2.238  13.9052
  2.236  13.7060
  2.234  13.5324
  2.232  13.3406
  2.230  13.1203
  2.228  12.9334
  2.226  12.7935
  2.224  12.6652
  2.222  12.6765
  2.220  12.6876
  2.218  12.7844
  2.216  12.9830
  2.214  13.0836
  2.212  13.1914
  2.210  13.2996
  2.208  13.4427
  2.206  13.6113
  2.204  13.6745
  2.202  13.7884
  2.200  13.9647
  2.198  14.0858
  2.196  14.0940
  2.194  14.1971
  2.192  14.2804
  2.190  14.3204
  2.188  14.3611
  2.186  14.3759
  2.184  14.4350
  2.182  14.4612
  2.180  14.5166
  2.178  14.6613
  2.176  14.7820
  2.174  14.9035
  2.172  15.0458
  2.170  15.1651
  2.168  15.3222
  2.166  15.4408
  2.164  15.5587
  2.162  15.7184
  2.160  15.8643
  2.158  16.0261
  2.156  16.1998
  2.154  16.3063
  2.152  16.4019
  2.150  16.5587
  2.148  16.7274
  2.146  16.8243
  2.144  16.8857
  2.142  16.9929
  2.140  17.1669
  2.138  17.3261
  2.136  17.2916
  2.134  17.4318
  2.132  17.6692
  2.130  17.7456
  2.128  17.8044
  2.126  17.9087
  2.124  18.1513
  2.122  18.2651
  2.120  18.3964
  2.118  18.6021
  2.116  18.7467
  2.114  18.8719
  2.112  19.0850
  2.110  19.2339
  2.108  19.3091
  2.106  19.4491
  2.104  19.6595
  2.102  19.8037
  2.100  19.8870
  2.098  20.0643
  2.096  20.2117
  2.094  20.2857
  2.092  20.3994
  2.090  20.5399
  2.088  20.5691
  2.086  20.6388
  2.084  20.6618
  2.082  20.6930
  2.080  20.7502
  2.078  20.7034
  2.076  20.6114
  2.074  20.6699
  2.072  20.6346
  2.070  20.6304
  2.068  20.6004
  2.066  20.6733
  2.064  20.6948
  2.062  20.7636
  2.060  20.7462
  2.058  20.7457
  2.056  20.7572
  2.054  20.6644
  2.052  20.5291
  2.050  20.3727
  2.048  20.2360
  2.046  20.1232
  2.044  19.8844
  2.042  19.8010
  2.040  19.5301
  2.038  19.3065
  2.036  19.1453
  2.034  18.8700
  2.032  18.6241
  2.030  18.3891
  2.028  18.0974
  2.026  17.7334
  2.024  17.4053
  2.022  17.0818
  2.020  16.6237
  2.018  16.1769
  2.016  15.7409
  2.014  15.2268
  2.012  14.6779
  2.010  14.0219
  2.008  13.4978
  2.006  12.7518
  2.004  12.0479
  2.002  11.2225
  2.000  10.5513
  1.998  10.0673
  1.996   9.4602
  1.994   9.1108
  1.992   8.8842
  1.990   8.6006
  1.988   8.4405
  1.986   8.4413
  1.984   8.2535
  1.982   8.1378
  1.980   8.0352
  1.978   7.9031
  1.976   7.7866
  1.974   7.7861
  1.972   7.6992
  1.970   7.7746
  1.968   7.7554
  1.966   7.4957
  1.964   7.3051
  1.962   7.1258
  1.960   6.8315
  1.958   6.6309
  1.956   6.5676
  1.954   6.5178
  1.952   6.3218
  1.950   6.3910
  1.948   6.3845
  1.946   6.5284
  1.944   6.5494
  1.942   6.6394
  1.940   6.6942
  1.938   6.8608
  1.936   7.2069
  1.934   7.2951
  1.932   7.6411
  1.930   7.9840
  1.928   8.2509
  1.926   8.6823
  1.924   8.9344
  1.922   9.4091
  1.920   9.8113
  1.918  10.2041
  1.916  10.4953
  1.914  10.9315
  1.912  11.3397
  1.910  11.8538
  1.908  12.3687
  1.906  12.7802
  1.904  13.5849
  1.902  13.9507
  1.900  14.5344
  1.898  15.1064
  1.896  15.8062
  1.894  16.3367
  1.892  17.1238
  1.890  17.7160
  1.888  18.6118
  1.886  19.3336
  1.884  20.1088
  1.882  20.8395
  1.880  21.5492
  1.878  22.4295
  1.876  23.4719
  1.874  24.4130
  1.872  25.3880
  1.870  26.0894
  1.868  26.6479
  1.866  27.2782
  1.864  27.9093
  1.862  28.5315
  1.860  29.0078
  1.858  29.4963
  1.856  29.7827
  1.854  30.3524
  1.852  30.4887
  1.850  30.7302
  1.848  30.9442
  1.846  31.1702
  1.844  31.1686
  1.842  31.3439
  1.840  31.3944
  1.838  31.3387
  1.836  31.4664
  1.834  31.4615
  1.832  31.3564
  1.830  31.5057
  1.828  31.3456
  1.826  31.3949
  1.824  31.0388
  1.822  30.9534
  1.820  30.9184
  1.818  30.7194
  1.816  30.6596
  1.814  30.4186
  1.812  30.2917
  1.810  30.1440
  1.808  29.8033
  1.806  29.5599
  1.804  29.3138
  1.802  29.0054
  1.800  28.6447
  1.798  28.2005
  1.796  27.8486
  1.794  27.3816
  1.792  26.8850
  1.790  26.4559
  1.788  26.1441
  1.786  25.8782
  1.784  25.5067
  1.782  25.3859
  1.780  25.0954
  1.778  25.0577
  1.776  25.1029
  1.774  24.9459
  1.772  24.7897
  1.770  24.7732
  1.768  24.6215
  1.766  24.3087
  1.764  24.1488
  1.762  23.8119
  1.760  23.5806
  1.758  23.3052
  1.756  23.1386
  1.754  22.9599
  1.752  22.9893
  1.750  23.1739
  1.748  23.4563
  1.746  23.6942
  1.744  24.2499
  1.742  24.7098
  1.740  25.1975
  1.738  25.9255
  1.736  26.4573
  1.734  27.1726
  1.732  27.8652
  1.730  28.5849
  1.728  29.3309
  1.726  30.0258
  1.724  30.7150
  1.722  31.4778
  1.720  32.2064
  1.718  32.9642
  1.716  33.7048
  1.714  34.3862
  1.712  35.0557
  1.710  35.6779
  1.708  36.3795
  1.706  36.7134
  1.704  37.2072
  1.702  37.6566
  1.700  38.0376
  1.698  38.4440
  1.696  38.7349
  1.694  39.0111
  1.692  39.2292
  1.690  39.4705
  1.688  39.5773
  1.686  39.7653
  1.684  39.7152
  1.682  39.9468
  1.680  40.1209
  1.678  40.0588
  1.676  40.1185
  1.674  40.1657
  1.672  40.1565
  1.670  40.1116
  1.668  40.0719
  1.666  39.9530
  1.664  39.8761
  1.662  39.7839
  1.660  39.6511
  1.658  39.5688
  1.656  39.4479
  1.654  39.3227
  1.652  39.1577
  1.650  39.0339
  1.648  38.8861
  1.646  38.6540
  1.644  38.4493
  1.642  38.2460
  1.640  38.0224
  1.638  37.8145
  1.636  37.5669
  1.634  37.3359
  1.632  37.1415
  1.630  36.8666
  1.628  36.7450
  1.626  36.5416
  1.624  36.3207
  1.622  36.0261
  1.620  35.7709
  1.618  35.5753
  1.616  35.3165
  1.614  35.0091
  1.612  34.7433
  1.610  34.4729
  1.608  34.1395
  1.606  33.8381
  1.604  33.5894
  1.602  33.2491
  1.600  32.8776
  1.598  32.5800
  1.596  32.3280
  1.594  31.9843
  1.592  31.7519
  1.590  31.4656
  1.588  31.2288
  1.586  30.9619
  1.584  30.7089
  1.582  30.4560
  1.580  30.2211
  1.578  29.9705
  1.576  29.5677
  1.574  29.1529
  1.572  28.8069
  1.570  28.5452
  1.568  28.1828
  1.566  27.7404
  1.564  27.3589
  1.562  26.8291
  1.560  26.2804
  1.558  25.7169
  1.556  25.2159
  1.554  24.6935
  1.552  24.1384
  1.550  23.5770
  1.548  23.0951
  1.546  22.7884
  1.544  22.4766
  1.542  22.3481
  1.540  22.4377
  1.538  22.5535
  1.536  22.7089
  1.534  22.9522
  1.532  23.1500
  1.530  23.2832
  1.528  23.4476
  1.526  23.5941
  1.524  23.6665
  1.522  23.6600
  1.520  23.6662
  1.518  23.6045
  1.516  23.4593
  1.514  23.3253
  1.512  23.0585
  1.510  22.6825
  1.508  22.2450
  1.506  21.6924
  1.504  21.0770
  1.502  20.4446
  1.500  19.9728
  1.498  19.6153
  1.496  19.5225
  1.494  19.6075
  1.492  19.7744
  1.490  20.0402
  1.488  20.4515
  1.486  20.5764
  1.484  20.6895
  1.482  20.8393
  1.480  20.7031
  1.478  20.5266
  1.476  20.4860
  1.474  20.3966
  1.472  20.2740
  1.470  20.1178
  1.468  19.9206
  1.466  19.6758
  1.464  19.2442
  1.462  18.9523
  1.460  18.4645
  1.458  17.7620
  1.456  17.0221
  1.454  16.1565
  1.452  15.6262
  1.450  15.6066
  1.448  16.0266
  1.446  16.9598
  1.444  18.0307
  1.442  19.1616
  1.440  20.1448
  1.438  21.0600
  1.436  21.8697
  1.434  22.3349
  1.432  22.7752
  1.430  23.3412
  1.428  23.9284
  1.426  24.6737
  1.424  25.4138
  1.422  26.2838
  1.420  27.1556
  1.418  27.9449
  1.416  28.7111
  1.414  29.5426
  1.412  30.1395
  1.410  30.9007
  1.408  31.4342
  1.406  32.1093
  1.404  32.6570
  1.402  32.9809
  1.400  33.2777
  1.398  33.5932
  1.396  33.7094
  1.394  33.9476
  1.392  34.1839
  1.390  34.3238
  1.388  34.4202
  1.386  34.5338
  1.384  34.7059
  1.382  34.8468
  1.380  35.1330
  1.378  35.4772
  1.376  35.5983
  1.374  35.8682
  1.372  35.9810
  1.370  36.2520
  1.368  36.5056
  1.366  36.7508
  1.364  36.9645
  1.362  37.2885
  1.360  37.5749
  1.358  37.8933
  1.356  38.3249
  1.354  38.6591
  1.352  38.9710
  1.350  39.3735
  1.348  39.7176
  1.346  39.9991
  1.344  40.3849
  1.342  40.6644
  1.340  40.9519
  1.338  41.3380
  1.336  41.4303
  1.334  41.6366
  1.332  41.9275
  1.330  42.1956
  1.328  42.2960
  1.326  42.4889
  1.324  42.5827
  1.322  42.9447
  1.320  42.9622
  1.318  43.2320
  1.316  43.3040
  1.314  43.4489
  1.312  43.3609
  1.310  43.5494
  1.308  43.5893
  1.306  43.7993
  1.304  43.7665
  1.302  43.7291
  1.300  43.9000
  1.298  43.9816
  1.296  43.8361
  1.294  43.8613
  1.292  43.9185
  1.290  43.8699
  1.288  43.9274
  1.286  43.9358
  1.284  43.9045
  1.282  43.9097
  1.280  43.8704
  1.278  43.7443
  1.276  43.7906
  1.274  43.7549
  1.272  43.7438
  1.270  43.6585
  1.268  43.5691
  1.266  43.5402
  1.264  43.4091
  1.262  43.5843
  1.260  43.4375
  1.258  43.3508
  1.256  43.0667
  1.254  43.2474
  1.252  43.0274
  1.250  42.7844
  1.248  42.5620
  1.246  42.2735
  1.244  42.0676
  1.242  41.7918
  1.240  41.6994
  1.238  41.4794
  1.236  41.5948
  1.234  41.4216
  1.232  41.4735
  1.230  41.5372
  1.228  41.2925
  1.226  41.5387
  1.224  41.2957
  1.222  41.2273
  1.220  40.8650
  1.218  40.7593
  1.216  40.2421
  1.214  40.0151
  1.212  39.9029
  1.210  39.9400
  1.208  39.9742
  1.206  40.3492
  1.204  40.2341
  1.202  40.2914
  1.200  40.2184
  1.198  40.3585
  1.196  40.3974
  1.194  40.3884
  1.192  40.3411
  1.190  40.3139
  1.188  40.3701
  1.186  40.2803
  1.184  40.6417
  1.182  40.6288
  1.180  40.9379
  1.178  41.1774
  1.176  41.4742
  1.174  41.9194
  1.172  42.4082
  1.170  42.8456
  1.168  43.3518
  1.166  43.5982
  1.164  43.9755
  1.162  44.4692
  1.160  44.6821
  1.158  44.9692
  1.156  45.2444
  1.154  45.5113
  1.152  45.7100
  1.150  45.9171
  1.148  45.9953
  1.146  46.1723
  1.144  46.2367
  1.142  46.3476
  1.140  46.3783
  1.138  46.4905
  1.136  46.3343
  1.134  46.5125
  1.132  46.5095
  1.130  46.5439
  1.128  46.5233
  1.126  46.6975
  1.124  46.6197
  1.122  46.7782
  1.120  46.7912
  1.118  46.7581
  1.116  46.7139
  1.114  46.6512
  1.112  46.7443
  1.110  46.9674
  1.108  46.8796
  1.106  46.9316
  1.104  47.0978
  1.102  46.9885
  1.100  47.0717
  1.098  47.0048
  1.096  47.0754
  1.094  47.1134
  1.092  47.1319
  1.090  47.0218
  1.088  47.0446
  1.086  47.1487
  1.084  47.0388
  1.082  47.0914
  1.080  47.0877
  1.078  47.0667
  1.076  47.0442
  1.074  47.0888
  1.072  47.0490
  1.070  47.0181
  1.068  47.0361
  1.066  47.0254
  1.064  47.0068
  1.062  46.9754
  1.060  46.9197
  1.058  46.9406
  1.056  46.9172
  1.054  46.7765
  1.052  46.7360
  1.050  46.7705
  1.048  46.7325
  1.046  46.6726
  1.044  46.6100
  1.042  46.6217
  1.040  46.6033
  1.038  46.5478
  1.036  46.3171
  1.034  46.2271
  1.032  46.0874
  1.030  46.1302
  1.028  46.0481
  1.026  45.8453
  1.024  45.7501
  1.022  45.6316
  1.020  45.5189
  1.018  45.4339
  1.016  45.3190
  1.014  45.2550
  1.012  45.0593
  1.010  44.9493
  1.008  44.7943
  1.006  44.6761
  1.004  44.6130
  1.002  44.5775
  1.000  44.5462
  0.998  44.6005
  0.996  44.5454
  0.994  44.5826
  0.992  44.7489
  0.990  44.9119
  0.988  44.9709
  0.986  45.0673
  0.984  45.1031
  0.982  45.2691
  0.980  45.4384
  0.978  45.4436
  0.976  45.4984
  0.974  45.6376
  0.972  45.6861
  0.970  45.7348
  0.968  45.8776
  0.966  45.8913
  0.964  45.9721
  0.962  46.0380
  0.960  45.9779
  0.958  45.9925
  0.956  46.1310
  0.954  46.1885
  0.952  46.1829
  0.950  46.2609
  0.948  46.3119
  0.946  46.3183
  0.944  46.3689
  0.942  46.3942
  0.940  46.3015
  0.938  46.2878
  0.936  46.2955
  0.934  46.3185
  0.932  46.3986
  0.930  46.3431
  0.928  46.3019
  0.926  46.3348
  0.924  46.3915
  0.922  46.3578
  0.920  46.2622
  0.918  46.2756
  0.916  46.2877
  0.914  46.2770
  0.912  46.2622
  0.910  46.3072
  0.908  46.2792
  0.906  46.2833
  0.904  46.2198
  0.902  46.1961
  0.900  46.3725
  0.898  46.5793
  0.896  46.5929
  0.894  46.5192
  0.892  46.4678
  0.890  46.4722
  0.888  46.4820
  0.886  46.3931
  0.884  46.4536
  0.882  46.4637
  0.880  46.4194
  0.878  46.5490
  0.876  46.5422
  0.874  46.6720
  0.872  46.6106
  0.870  46.4450
  0.868  46.3728
  0.866  46.5929
  0.864  46.6990
  0.862  46.3718
  0.860  46.5265
  0.858  46.4473
  0.856  46.2748
  0.854  46.2711
  0.852  46.2858
  0.850  46.3450
  0.848  46.4222
  0.846  46.3854
  0.844  46.3720
  0.842  46.4223
  0.840  46.4395
  0.838  46.4441
  0.836  46.4198
  0.834  46.4008
  0.832  46.4408
  0.830  46.4386
  0.828  46.4604
  0.826  46.4578
  0.824  46.4561
  0.822  46.4684
  0.820  46.4442
  0.818  46.4403
  0.816  46.4214
  0.814  46.4501
  0.812  46.4485
  0.810  46.4421
  0.808  46.4588
  0.806  46.4642
  0.804  46.4550
  0.802  46.4600
  0.800  46.4437
  0.798  46.4135
  0.796  46.4083
  0.794  46.3942
  0.792  46.3827
  0.790  46.3598
  0.788  46.3634
  0.786  46.3575
  0.784  46.3514
  0.782  46.3228
  0.780  46.3374
  0.778  46.3219
  0.776  46.2876
  0.774  46.2519
  0.772  46.2472
  0.770  46.2224
  0.768  46.2148
  0.766  46.1852
  0.764  46.2024
  0.762  46.1874
  0.760  46.1960
  0.758  46.1719
  0.756  46.1700
  0.754  46.1578
  0.752  46.1337
  0.750  46.1317
  0.748  46.1160
  0.746  46.0986
  0.744  46.0747
  0.742  46.0429
  0.740  46.0308
  0.738  46.0240
  0.736  46.0048
  0.734  45.9769
  0.732  45.9410
  0.730  45.9178
  0.728  45.8958
  0.726  45.8768
  0.724  45.8685
  0.722  45.8345
  0.720  45.7933
  0.718  45.7627
  0.716  45.7344
  0.714  45.7237
  0.712  45.6742
  0.710  45.6575
  0.708  45.6193
  0.706  45.6031
  0.704  45.5551
  0.702  45.5551
  0.700  45.5182
  0.698  45.4847
  0.696  45.4365
  0.694  45.4025
  0.692  45.3701
  0.690  45.3420
  0.688  45.3228
  0.686  45.2790
  0.684  45.2654
  0.682  45.2085
  0.680  45.1863
  0.678  45.1715
  0.676  45.1266
  0.674  45.0710
  0.672  45.0648
  0.670  45.0298
  0.668  44.9922
  0.666  44.9647
  0.664  44.9060
  0.662  44.8676
  0.660  44.8559
  0.658  44.8282
  0.656  44.7920
  0.654  44.7408
  0.652  44.7333
  0.650  44.7037
  0.648  44.6565
  0.646  44.6181
  0.644  44.5772
  0.642  44.5297
  0.640  44.5142
  0.638  44.4623
  0.636  44.4320
  0.634  44.3848
  0.632  44.3675
  0.630  44.3430
  0.628  44.2958
  0.626  44.2499
  0.624  44.2174
  0.622  44.1623
  0.620  44.1175
  0.618  44.0845
  0.616  44.0308
  0.614  43.9936
  0.612  43.9363
  0.610  43.8910
  0.608  43.8289
  0.606  43.7549
  0.604  43.7129
  0.602  43.6435
  0.600  43.5699
  0.598  43.5085
  0.596  43.4071
  0.594  43.2998
  0.592  43.2376
  0.590  43.1054
  0.588  43.0056
  0.586  42.9114
  0.584  42.7727
  0.582  42.6194
  0.580  42.5230
  0.578  42.3799
  0.576  42.2077
  0.574  42.0617
  0.572  41.9186
  0.570  41.7411
  0.568  41.5794
  0.566  41.4128
  0.564  41.2299
  0.562  41.0536
  0.560  40.8695
  0.558  40.6956
  0.556  40.5136
  0.554  40.3364
  0.552  40.1535
  0.550  39.9798
  0.548  39.8125
  0.546  39.6317
  0.544  39.4732
  0.542  39.2993
  0.540  39.1426
  0.538  38.9845
  0.536  38.7937
  0.534  38.6341
  0.532  38.4679
  0.530  38.3084
  0.528  38.1402
  0.526  37.9794
  0.524  37.8132
  0.522  37.6618
  0.520  37.5062
  0.518  37.3545
  0.516  37.2083
  0.514  37.0518
  0.512  36.9072
  0.510  36.7742
  0.508  36.6197
  0.506  36.4852
  0.504  36.3354
  0.502  36.1993
  0.500  36.0589
  0.498  35.9333
  0.496  35.7831
  0.494  35.6355
  0.492  35.5096
  0.490  35.3738
  0.488  35.2477
  0.486  35.1060
  0.484  34.9687
  0.482  34.8694
  0.480  34.7704
  0.478  34.6816
  0.476  34.5986
  0.474  34.5169
  0.472  34.4471
  0.470  34.3736
  0.468  34.2925
  0.466  34.2111
  0.464  34.1361
  0.462  34.0503
  0.460  33.9692
  0.458  33.8771
  0.456  33.7744
  0.454  33.6531
  0.452  33.5281
  0.450  33.3941
  0.448  33.2512
  0.446  33.0804
  0.444  32.8983
  0.442  32.7316
  0.440  32.5538
  0.438  32.3705
  0.436  32.1837
  0.434  31.9918
  0.432  31.8126
  0.430  31.6371
  0.428  31.4723
  0.426  31.3092
  0.424  31.1625
  0.422  31.0149
  0.420  30.8891
  0.418  30.7526
  0.416  30.6137
  0.414  30.4881
  0.412  30.3586
  0.410  30.2474
  0.408  30.1158
  0.406  29.9864
  0.404  29.8709
  0.402  29.7572
  0.400  29.6221
