Name: Polyhalite K2Ca2Mg(SO4)4 * 2H2O
Type: Mineral
Class: Sulfate
Subclass: None
Particle Size: Unsieved coarse powder
Sample No.: NMNH 92669-4
Owner: Smithsonian Institute, National Museum of Nat. History
Wavelength range: 0.40 - 14.05 um
Origin: Carlsbad, New Mexico

Description: Polyhalite powder from Carlsbad, New Mexico





Measurement: Directional Hemispherical Reflectance
First Column: X
Second Column: Y
X Units: Wavelength (micrometers)
Y Units: Reflectance (percent)
First X Value: 14.05105
Last X Value: 0.40000
Number of X Values: 2756
Additional Information: None

 14.051   2.2866
 14.013   2.2042
 13.975   2.3484
 13.938   2.1836
 13.900   2.2660
 13.863   2.1939
 13.826   2.1012
 13.790   2.0909
 13.753   2.1836
 13.717   2.0909
 13.680   2.1836
 13.644   2.1527
 13.609   2.0909
 13.573   1.9982
 13.538   2.0085
 13.502   2.0291
 13.467   2.1321
 13.432   2.0600
 13.398   2.0703
 13.363   2.0394
 13.329   2.0806
 13.295   2.0085
 13.261   2.0188
 13.227   1.9570
 13.193   1.9055
 13.160   1.8540
 13.126   1.8540
 13.093   1.7510
 13.060   1.7716
 13.027   1.7304
 12.995   1.7407
 12.962   1.5553
 12.930   1.4317
 12.898   1.4111
 12.866   1.4729
 12.834   1.3699
 12.802   1.3081
 12.771   1.2669
 12.739   1.2875
 12.708   1.2360
 12.677   1.3287
 12.646   1.3184
 12.616   1.3287
 12.585   1.3184
 12.554   1.3493
 12.524   1.3287
 12.494   1.4626
 12.464   1.5553
 12.434   1.6583
 12.404   1.6274
 12.375   1.6686
 12.345   1.7613
 12.316   1.9261
 12.287   1.9570
 12.258   1.9673
 12.229   1.9570
 12.200   2.1012
 12.171   2.2351
 12.143   2.4514
 12.115   2.4720
 12.086   2.5132
 12.058   2.5647
 12.030   2.6883
 12.002   2.7089
 11.975   2.7913
 11.947   2.8428
 11.920   2.9870
 11.892   3.0591
 11.865   3.1827
 11.838   3.1930
 11.811   3.2651
 11.784   3.2960
 11.757   3.3887
 11.731   3.4505
 11.704   3.5123
 11.678   3.5535
 11.652   3.6565
 11.626   3.7286
 11.600   3.8728
 11.574   3.9758
 11.548   4.0788
 11.522   4.0479
 11.497   4.0788
 11.471   4.2024
 11.446   4.3157
 11.421   4.3878
 11.396   4.5011
 11.371   4.4702
 11.346   4.5011
 11.321   4.5114
 11.297   4.6453
 11.272   4.6865
 11.248   4.7689
 11.223   4.8204
 11.199   4.8925
 11.175   4.9543
 11.151   5.0367
 11.127   5.0676
 11.103   5.1809
 11.079   5.2633
 11.056   5.3663
 11.032   5.4281
 11.009   5.5311
 10.985   5.5414
 10.962   5.5826
 10.939   5.6650
 10.916   5.7577
 10.893   5.7783
 10.870   5.8916
 10.848   5.9328
 10.825   5.8916
 10.802   5.8710
 10.780   5.9328
 10.758   5.9534
 10.735   6.0049
 10.713   5.9740
 10.691   5.9122
 10.669   5.8710
 10.647   5.8710
 10.625   5.8401
 10.604   5.8298
 10.582   5.7577
 10.560   5.8195
 10.539   5.7886
 10.518   5.7268
 10.496   5.5826
 10.475   5.5517
 10.454   5.5620
 10.433   5.4796
 10.412   5.3663
 10.391   5.3148
 10.370   5.1191
 10.350   5.0882
 10.329   5.0882
 10.309   5.0882
 10.288   5.0779
 10.268   5.0470
 10.247   4.8719
 10.227   4.6247
 10.207   4.3054
 10.187   4.0994
 10.167   3.8522
 10.147   3.5329
 10.127   3.3063
 10.108   3.3372
 10.088   3.3681
 10.068   3.1518
 10.049   2.6677
 10.029   2.6162
 10.010   2.8943
  9.991   3.3372
  9.972   3.7286
  9.952   4.0376
  9.933   4.1715
  9.914   4.3466
  9.895   4.2642
  9.877   4.2230
  9.858   4.0685
  9.839   3.7904
  9.821   3.3784
  9.802   3.3166
  9.783   3.7080
  9.765   4.2333
  9.747   4.4702
  9.728   4.6556
  9.710   4.7483
  9.692   4.8101
  9.674   4.7586
  9.656   4.7277
  9.638   4.7071
  9.620   4.6350
  9.602   4.5423
  9.585   4.6144
  9.567   4.6659
  9.549   4.6247
  9.532   4.5217
  9.514   4.4702
  9.497   4.4599
  9.479   4.4599
  9.462   4.3672
  9.445   4.2848
  9.428   4.2127
  9.411   4.1921
  9.394   4.1715
  9.377   4.2230
  9.360   4.1612
  9.343   4.2539
  9.326   4.4187
  9.309   4.7174
  9.293   5.0676
  9.276   5.4693
  9.259   5.7783
  9.243   5.9946
  9.226   6.1800
  9.210   6.5199
  9.194   6.7362
  9.178   6.9113
  9.161   7.1482
  9.145   7.3645
  9.129   7.5190
  9.113   7.6117
  9.097   7.6529
  9.081   7.7250
  9.065   7.7353
  9.049   7.7250
  9.034   7.6323
  9.018   7.4160
  9.002   6.8907
  8.987   6.2727
  8.971   5.4899
  8.956   4.7174
  8.940   4.0788
  8.925   3.5638
  8.909   3.0797
  8.894   2.9355
  8.879   2.8428
  8.864   2.6677
  8.849   2.6574
  8.834   2.9149
  8.819   3.2754
  8.804   3.8625
  8.789   4.4599
  8.774   5.0573
  8.759   5.4590
  8.744   5.8401
  8.730   6.3242
  8.715   6.8495
  8.700   7.1379
  8.686   7.4469
  8.671   7.7147
  8.657   8.1061
  8.642   8.4563
  8.628   8.7550
  8.614   9.0537
  8.599   9.4348
  8.585   9.7541
  8.571  10.0734
  8.557  10.3412
  8.543  10.4957
  8.529  10.5369
  8.515  10.4957
  8.501  10.3103
  8.487  10.0631
  8.473   9.7541
  8.459   9.4142
  8.445   8.8271
  8.431   8.1988
  8.418   7.8486
  8.404   7.9310
  8.391   7.8692
  8.377   7.5499
  8.363   7.1585
  8.350   6.7671
  8.337   6.3860
  8.323   6.0667
  8.310   5.6959
  8.297   5.4590
  8.283   5.2324
  8.270   5.0985
  8.257   5.0161
  8.244   4.9955
  8.231   5.0264
  8.218   5.0985
  8.205   5.1397
  8.192   5.2324
  8.179   5.3354
  8.166   5.4487
  8.153   5.4796
  8.140   5.5208
  8.128   5.6032
  8.115   5.6959
  8.102   5.7062
  8.090   5.6753
  8.077   5.5105
  8.064   5.1603
  8.052   4.6350
  8.039   4.0582
  8.027   3.4711
  8.015   2.9870
  8.002   2.5544
  7.990   2.2042
  7.978   1.9055
  7.965   1.6171
  7.953   1.3802
  7.941   1.2669
  7.929   1.1021
  7.917   0.9579
  7.905   0.8343
  7.893   0.8034
  7.881   0.7107
  7.869   0.6180
  7.857   0.5562
  7.845   0.5871
  7.833   0.5562
  7.821   0.5562
  7.809   0.5150
  7.798   0.5047
  7.786   0.5047
  7.774   0.5253
  7.763   0.4841
  7.751   0.4841
  7.739   0.4841
  7.728   0.5047
  7.716   0.4738
  7.705   0.5356
  7.694   0.5768
  7.682   0.5253
  7.671   0.4841
  7.659   0.5562
  7.648   0.5665
  7.637   0.6180
  7.626   0.5974
  7.614   0.5665
  7.603   0.5150
  7.592   0.5562
  7.581   0.6489
  7.570   0.7519
  7.559   0.6798
  7.548   0.6489
  7.537   0.6798
  7.526   0.7519
  7.515   0.7725
  7.504   0.7416
  7.493   0.7107
  7.483   0.7931
  7.472   0.8343
  7.461   0.8652
  7.450   0.8240
  7.440   0.8549
  7.429   0.8858
  7.418   0.9579
  7.408   1.0094
  7.397   1.0197
  7.387   0.9682
  7.376   1.0300
  7.366   1.0403
  7.355   1.0094
  7.345   1.0197
  7.334   1.0815
  7.324   1.1124
  7.314   1.1227
  7.303   1.1330
  7.293   1.1845
  7.283   1.2669
  7.273   1.3184
  7.263   1.3081
  7.252   1.3493
  7.242   1.3802
  7.232   1.4214
  7.222   1.3699
  7.212   1.3802
  7.202   1.4111
  7.192   1.4626
  7.182   1.4935
  7.172   1.5141
  7.162   1.4935
  7.152   1.5347
  7.143   1.6377
  7.133   1.7201
  7.123   1.7098
  7.113   1.6892
  7.103   1.6892
  7.094   1.7613
  7.084   1.7922
  7.074   1.8746
  7.065   1.8952
  7.055   1.8849
  7.046   1.8334
  7.036   1.9158
  7.026   1.9982
  7.017   2.0291
  7.007   2.0600
  6.998   2.1424
  6.989   2.1527
  6.979   2.1424
  6.970   2.1424
  6.960   2.2042
  6.951   2.2866
  6.942   2.3587
  6.932   2.3381
  6.923   2.3484
  6.914   2.3690
  6.905   2.4411
  6.896   2.4823
  6.886   2.5441
  6.877   2.5544
  6.868   2.5029
  6.859   2.4720
  6.850   2.5853
  6.841   2.6574
  6.832   2.7089
  6.823   2.7295
  6.814   2.7398
  6.805   2.7295
  6.796   2.8222
  6.787   2.8943
  6.778   2.9252
  6.770   2.8737
  6.761   2.8840
  6.752   2.9046
  6.743   2.9870
  6.734   3.0900
  6.726   3.1209
  6.717   3.1209
  6.708   3.1930
  6.700   3.2445
  6.691   3.2960
  6.682   3.2342
  6.674   3.2445
  6.665   3.2754
  6.657   3.3475
  6.648   3.3990
  6.640   3.4299
  6.631   3.4402
  6.623   3.4608
  6.614   3.4299
  6.606   3.4505
  6.597   3.5020
  6.589   3.5741
  6.581   3.5741
  6.572   3.5844
  6.564   3.6565
  6.556   3.7183
  6.547   3.6565
  6.539   3.6668
  6.531   3.7286
  6.523   3.7801
  6.514   3.7595
  6.506   3.7492
  6.498   3.7595
  6.490   3.8007
  6.482   3.8007
  6.474   3.7801
  6.466   3.7595
  6.458   3.7698
  6.450   3.7595
  6.442   3.7801
  6.434   3.7801
  6.426   3.7698
  6.418   3.7286
  6.410   3.7595
  6.402   3.8522
  6.394   3.7595
  6.386   3.7080
  6.378   3.7080
  6.370   3.6359
  6.363   3.5947
  6.355   3.5535
  6.347   3.5535
  6.339   3.5432
  6.332   3.4917
  6.324   3.4196
  6.316   3.4093
  6.308   3.3681
  6.301   3.3372
  6.293   3.3372
  6.286   3.2960
  6.278   3.2136
  6.270   3.1518
  6.263   3.0282
  6.255   2.9767
  6.248   2.9767
  6.240   2.9458
  6.233   2.7913
  6.225   2.6883
  6.218   2.6059
  6.210   2.5132
  6.203   2.3999
  6.195   2.3072
  6.188   2.2248
  6.181   2.1424
  6.173   2.0291
  6.166   1.9673
  6.159   1.9467
  6.151   1.8849
  6.144   1.7613
  6.137   1.6789
  6.130   1.5862
  6.122   1.5244
  6.115   1.5141
  6.108   1.5244
  6.101   1.4729
  6.094   1.4420
  6.086   1.4832
  6.079   1.5038
  6.072   1.5347
  6.065   1.5656
  6.058   1.6377
  6.051   1.7098
  6.044   1.7819
  6.037   1.9158
  6.030   2.0600
  6.023   2.2351
  6.016   2.3484
  6.009   2.4823
  6.002   2.6368
  5.995   2.8016
  5.988   2.9664
  5.981   3.1827
  5.974   3.2857
  5.967   3.4505
  5.960   3.6668
  5.954   3.9037
  5.947   4.0994
  5.940   4.3054
  5.933   4.5217
  5.926   4.7174
  5.920   4.8616
  5.913   5.0676
  5.906   5.3045
  5.899   5.4899
  5.893   5.6238
  5.886   5.7886
  5.879   5.9740
  5.873   6.2315
  5.866   6.4272
  5.859   6.6126
  5.853   6.7259
  5.846   6.8495
  5.840   7.0349
  5.833   7.2306
  5.827   7.3748
  5.820   7.5190
  5.813   7.6323
  5.807   7.7662
  5.800   7.8383
  5.794   7.9619
  5.788   8.1164
  5.781   8.2606
  5.775   8.3533
  5.768   8.4975
  5.762   8.6108
  5.755   8.6623
  5.749   8.7653
  5.743   8.9095
  5.736   8.9610
  5.730   9.0640
  5.724   9.1876
  5.717   9.3009
  5.711   9.3833
  5.705   9.4554
  5.698   9.5584
  5.692   9.6717
  5.686   9.7026
  5.680   9.7953
  5.674   9.9086
  5.667  10.0116
  5.661  10.0631
  5.655  10.1352
  5.649  10.2382
  5.643  10.2794
  5.637  10.2691
  5.630  10.3618
  5.624  10.4545
  5.618  10.5163
  5.612  10.5884
  5.606  10.6708
  5.600  10.7017
  5.594  10.7429
  5.588  10.7738
  5.582  10.8562
  5.576  10.9283
  5.570  10.9901
  5.564  11.0313
  5.558  11.0725
  5.552  11.0725
  5.546  11.0931
  5.540  11.1240
  5.534  11.1858
  5.528  11.1858
  5.523  11.1858
  5.517  11.1858
  5.511  11.2270
  5.505  11.2476
  5.499  11.2785
  5.493  11.3094
  5.487  11.3403
  5.482  11.3815
  5.476  11.3918
  5.470  11.3815
  5.464  11.4227
  5.459  11.4536
  5.453  11.4536
  5.447  11.4845
  5.441  11.5463
  5.436  11.5875
  5.430  11.6390
  5.424  11.6699
  5.419  11.7008
  5.413  11.7729
  5.407  11.8347
  5.402  11.8553
  5.396  11.9274
  5.390  11.9995
  5.385  12.0201
  5.379  12.0613
  5.374  12.1643
  5.368  12.1952
  5.363  12.2364
  5.357  12.2879
  5.352  12.3188
  5.346  12.3394
  5.341  12.3703
  5.335  12.4424
  5.330  12.5042
  5.324  12.5248
  5.319  12.5454
  5.313  12.5660
  5.308  12.5763
  5.302  12.5969
  5.297  12.6381
  5.291  12.6381
  5.286  12.6690
  5.281  12.6999
  5.275  12.7102
  5.270  12.7102
  5.265  12.6999
  5.259  12.6587
  5.254  12.6999
  5.249  12.7617
  5.243  12.8029
  5.238  12.7926
  5.233  12.7823
  5.227  12.7411
  5.222  12.7514
  5.217  12.7514
  5.212  12.7514
  5.206  12.7617
  5.201  12.7514
  5.196  12.7205
  5.191  12.7308
  5.186  12.7205
  5.180  12.6793
  5.175  12.6381
  5.170  12.6587
  5.165  12.6690
  5.160  12.6587
  5.155  12.6072
  5.150  12.5454
  5.145  12.4836
  5.139  12.4527
  5.134  12.4218
  5.129  12.3600
  5.124  12.2776
  5.119  12.2158
  5.114  12.1437
  5.109  12.0716
  5.104  11.9274
  5.099  11.7317
  5.094  11.5257
  5.089  11.2888
  5.084  10.9489
  5.079  10.4751
  5.074   9.7953
  5.069   8.9713
  5.064   8.1164
  5.059   7.6838
  5.054   8.0752
  5.049   9.0743
  5.044  10.0219
  5.040  10.7532
  5.035  11.2785
  5.030  11.6802
  5.025  11.9480
  5.020  12.0922
  5.015  12.2055
  5.010  12.2364
  5.005  12.2158
  5.001  12.2158
  4.996  12.2364
  4.991  12.2158
  4.986  12.1231
  4.981  12.0613
  4.977  12.0407
  4.972  12.0304
  4.967  12.0098
  4.962  12.0098
  4.958  11.9789
  4.953  11.9068
  4.948  11.7935
  4.943  11.6596
  4.939  11.4433
  4.934  11.1961
  4.929  10.8871
  4.925  10.5781
  4.920  10.3412
  4.915  10.2176
  4.911  10.2279
  4.906  10.3206
  4.901  10.2794
  4.897  10.0940
  4.892   9.8365
  4.888   9.5172
  4.883   9.1361
  4.878   8.6726
  4.874   8.1885
  4.869   7.6323
  4.865   7.0967
  4.860   6.6847
  4.856   6.4375
  4.851   6.4478
  4.846   6.5817
  4.842   6.7671
  4.837   6.9937
  4.833   7.1688
  4.828   7.2821
  4.824   7.3439
  4.819   7.3645
  4.815   7.3748
  4.810   7.3645
  4.806   7.2409
  4.802   7.1070
  4.797   7.0040
  4.793   6.9216
  4.788   6.9010
  4.784   6.9422
  4.779   7.0040
  4.775   6.9937
  4.771   6.9731
  4.766   6.9628
  4.762   6.9113
  4.758   6.8289
  4.753   6.7877
  4.749   6.7362
  4.744   6.6744
  4.740   6.5817
  4.736   6.4169
  4.731   6.2830
  4.727   6.1491
  4.723   5.9534
  4.719   5.7577
  4.714   5.6959
  4.710   5.7371
  4.706   5.7783
  4.701   5.8298
  4.697   5.8195
  4.693   5.7989
  4.689   5.7886
  4.684   5.7165
  4.680   5.6650
  4.676   5.6341
  4.672   5.5105
  4.668   5.3457
  4.663   5.2427
  4.659   5.2118
  4.655   5.2427
  4.651   5.2118
  4.647   5.1912
  4.643   5.2118
  4.638   5.2221
  4.634   5.2015
  4.630   5.2427
  4.626   5.3457
  4.622   5.4281
  4.618   5.5002
  4.614   5.6135
  4.610   5.6444
  4.605   5.6547
  4.601   5.7165
  4.597   5.7989
  4.593   5.7680
  4.589   5.7680
  4.585   5.8195
  4.581   5.9019
  4.577   5.9534
  4.573   5.9740
  4.569   5.9637
  4.565   6.0255
  4.561   6.0770
  4.557   6.0461
  4.553   6.0255
  4.549   6.0152
  4.545   6.0152
  4.541   6.0255
  4.537   5.9946
  4.533   5.9328
  4.529   5.8813
  4.525   5.8401
  4.521   5.9019
  4.517   5.9946
  4.513   6.0770
  4.509   6.1594
  4.505   6.2315
  4.502   6.2727
  4.498   6.3139
  4.494   6.3551
  4.490   6.3345
  4.486   6.3860
  4.482   6.4169
  4.478   6.4375
  4.474   6.4684
  4.470   6.4581
  4.467   6.4272
  4.463   6.4375
  4.459   6.4581
  4.455   6.4787
  4.451   6.5096
  4.447   6.5405
  4.444   6.5817
  4.440   6.6847
  4.436   6.7774
  4.432   6.9010
  4.428   6.9731
  4.425   6.9937
  4.421   7.0658
  4.417   7.1894
  4.413   7.2615
  4.410   7.3645
  4.406   7.4572
  4.402   7.5602
  4.398   7.6220
  4.395   7.6323
  4.391   7.6220
  4.387   7.6220
  4.384   7.6117
  4.380   7.6632
  4.376   7.7765
  4.372   7.7353
  4.369   7.6632
  4.365   7.6220
  4.361   7.5911
  4.358   7.5293
  4.354   7.5087
  4.350   7.5396
  4.347   7.5911
  4.343   7.6220
  4.340   7.6426
  4.336   7.7147
  4.332   7.7559
  4.329   7.7456
  4.325   7.7559
  4.321   7.7971
  4.318   7.7765
  4.314   7.7353
  4.311   7.7456
  4.307   7.7662
  4.304   7.7971
  4.300   7.8486
  4.296   7.9516
  4.293   8.0340
  4.289   8.0546
  4.286   8.1164
  4.282   8.2503
  4.279   8.4357
  4.275   8.4048
  4.272   8.3842
  4.268   8.5181
  4.265   8.5696
  4.261   8.6005
  4.258   8.6726
  4.254   8.7138
  4.251   8.7550
  4.247   8.7962
  4.244   8.9095
  4.240   9.0537
  4.237   9.1464
  4.233   9.1670
  4.230   9.1567
  4.226   9.2391
  4.223   9.2906
  4.219   9.2185
  4.216   9.2185
  4.213   9.2185
  4.209   9.1979
  4.206   9.2597
  4.202   9.3936
  4.199   9.4863
  4.196   9.5378
  4.192   9.5996
  4.189   9.6511
  4.185   9.7026
  4.182   9.7850
  4.179   9.9189
  4.175  10.0116
  4.172  10.0631
  4.169  10.1043
  4.165  10.1970
  4.162  10.3206
  4.159  10.3927
  4.155  10.4854
  4.152  10.5781
  4.149  10.5884
  4.145  10.5678
  4.142  10.5678
  4.139  10.5266
  4.135  10.4854
  4.132  10.4133
  4.129  10.3515
  4.126  10.2588
  4.122  10.1867
  4.119  10.1043
  4.116   9.9910
  4.112   9.8468
  4.109   9.6511
  4.106   9.4554
  4.103   9.2700
  4.099   9.1773
  4.096   9.1258
  4.093   8.9610
  4.090   8.7756
  4.086   8.6211
  4.083   8.5387
  4.080   8.4872
  4.077   8.4151
  4.074   8.3739
  4.070   8.4357
  4.067   8.3945
  4.064   8.2709
  4.061   8.2709
  4.058   8.3945
  4.055   8.4666
  4.051   8.5181
  4.048   8.5902
  4.045   8.6417
  4.042   8.7138
  4.039   8.9198
  4.036   9.1464
  4.032   9.2803
  4.029   9.4657
  4.026   9.7438
  4.023   9.9807
  4.020  10.1764
  4.017  10.3309
  4.014  10.5266
  4.011  10.7738
  4.008  11.0107
  4.004  11.1858
  4.001  11.4124
  3.998  11.5875
  3.995  11.7214
  3.992  11.9583
  3.989  12.2570
  3.986  12.4836
  3.983  12.6999
  3.980  12.8235
  3.977  12.9677
  3.974  13.1428
  3.971  13.3076
  3.968  13.4209
  3.965  13.5342
  3.962  13.6063
  3.959  13.7093
  3.956  13.8123
  3.953  13.9256
  3.950  13.9668
  3.947  13.9565
  3.944  13.9359
  3.941  14.0183
  3.938  14.2037
  3.935  14.4303
  3.932  14.6878
  3.929  14.7908
  3.926  14.9453
  3.923  15.0483
  3.920  15.0483
  3.917  15.1513
  3.914  15.2646
  3.911  15.4191
  3.908  15.5427
  3.905  15.5530
  3.902  15.5633
  3.899  15.6869
  3.896  15.7590
  3.893  15.7899
  3.890  15.8517
  3.887  15.9135
  3.884  15.9135
  3.882  15.9650
  3.879  16.1298
  3.876  16.3049
  3.873  16.2740
  3.870  16.2637
  3.867  16.2843
  3.864  16.3770
  3.861  16.5315
  3.858  16.6345
  3.856  16.5933
  3.853  16.6036
  3.850  16.7169
  3.847  16.7684
  3.844  16.7890
  3.841  16.8508
  3.838  16.9126
  3.836  16.9950
  3.833  17.0671
  3.830  17.1598
  3.827  17.2628
  3.824  17.2937
  3.822  17.3143
  3.819  17.3864
  3.816  17.4482
  3.813  17.4070
  3.810  17.4276
  3.807  17.5821
  3.805  17.6027
  3.802  17.5306
  3.799  17.6336
  3.796  17.7572
  3.794  17.6954
  3.791  17.6748
  3.788  17.7057
  3.785  17.7263
  3.782  17.7881
  3.780  17.8293
  3.777  17.8396
  3.774  17.8190
  3.771  17.8087
  3.769  17.9220
  3.766  17.9735
  3.763  17.9838
  3.761  17.9323
  3.758  17.8396
  3.755  17.8190
  3.752  17.9220
  3.750  17.9323
  3.747  17.9632
  3.744  17.9632
  3.742  17.9220
  3.739  17.8602
  3.736  17.9014
  3.733  17.9632
  3.731  17.9529
  3.728  18.0044
  3.725  18.0559
  3.723  17.9838
  3.720  17.9220
  3.717  17.9220
  3.715  18.0147
  3.712  18.0662
  3.709  18.0559
  3.707  18.0044
  3.704  17.9220
  3.702  17.9220
  3.699  17.9117
  3.696  17.8602
  3.694  17.8808
  3.691  17.9014
  3.688  17.8499
  3.686  17.7984
  3.683  17.8087
  3.680  17.7675
  3.678  17.6851
  3.675  17.5924
  3.673  17.5924
  3.670  17.6130
  3.667  17.6851
  3.665  17.7160
  3.662  17.7263
  3.660  17.7675
  3.657  17.7778
  3.655  17.6954
  3.652  17.6439
  3.649  17.6027
  3.647  17.6027
  3.644  17.6233
  3.642  17.5409
  3.639  17.4791
  3.637  17.4482
  3.634  17.4276
  3.632  17.3555
  3.629  17.3143
  3.626  17.3143
  3.624  17.2422
  3.621  17.1907
  3.619  17.1701
  3.616  17.1083
  3.614  17.0465
  3.611  16.9950
  3.609  16.9023
  3.606  16.8405
  3.604  16.6860
  3.601  16.6345
  3.599  16.5727
  3.596  16.4594
  3.594  16.3667
  3.591  16.3255
  3.589  16.2019
  3.586  16.1092
  3.584  15.9444
  3.581  15.8311
  3.579  15.8002
  3.576  15.8414
  3.574  15.8002
  3.571  15.6354
  3.569  15.5530
  3.567  15.5324
  3.564  15.4603
  3.562  15.4397
  3.559  15.4294
  3.557  15.3676
  3.554  15.3161
  3.552  15.2646
  3.549  15.1204
  3.547  15.0174
  3.545  14.9865
  3.542  14.9144
  3.540  14.8629
  3.537  14.8423
  3.535  14.7908
  3.533  14.7084
  3.530  14.5745
  3.528  14.4921
  3.525  14.4097
  3.523  14.3273
  3.521  14.2758
  3.518  14.3170
  3.516  14.2655
  3.513  14.1110
  3.511  14.1316
  3.509  14.1316
  3.506  14.0698
  3.504  14.0286
  3.502  13.8741
  3.499  13.7505
  3.497  13.7093
  3.494  13.6372
  3.492  13.5960
  3.490  13.5548
  3.487  13.5445
  3.485  13.5857
  3.483  13.4415
  3.480  13.3179
  3.478  13.2870
  3.476  13.2664
  3.473  13.2046
  3.471  13.1428
  3.469  12.9780
  3.466  12.9265
  3.464  12.9677
  3.462  12.9368
  3.460  12.6999
  3.457  12.6072
  3.455  12.6072
  3.453  12.5763
  3.450  12.3806
  3.448  12.3291
  3.446  12.2879
  3.443  12.1952
  3.441  12.0510
  3.439  11.9480
  3.437  11.9892
  3.434  11.9686
  3.432  11.9068
  3.430  11.8141
  3.428  11.6184
  3.425  11.5978
  3.423  11.5669
  3.421  11.5257
  3.418  11.3918
  3.416  11.3918
  3.414  11.4021
  3.412  11.2785
  3.409  11.1652
  3.407  11.1240
  3.405  11.0210
  3.403  10.9386
  3.401  10.8871
  3.398  10.8459
  3.396  10.8459
  3.394  10.8459
  3.392  10.7429
  3.389  10.6090
  3.387  10.6193
  3.385  10.5884
  3.383  10.4957
  3.381  10.4236
  3.378  10.2588
  3.376  10.1455
  3.374  10.0219
  3.372   9.9498
  3.370   9.9704
  3.367   9.9189
  3.365   9.7644
  3.363   9.7438
  3.361   9.7644
  3.359   9.5996
  3.357   9.3730
  3.354   9.3421
  3.352   9.2803
  3.350   9.1567
  3.348   8.9919
  3.346   8.9404
  3.344   8.9301
  3.341   8.8168
  3.339   8.6520
  3.337   8.6417
  3.335   8.4975
  3.333   8.4151
  3.331   8.3018
  3.329   8.1061
  3.326   7.9722
  3.324   7.9619
  3.322   7.8795
  3.320   7.7044
  3.318   7.5911
  3.316   7.5705
  3.314   7.4675
  3.312   7.3645
  3.309   7.2615
  3.307   7.1791
  3.305   7.0761
  3.303   7.0349
  3.301   6.9834
  3.299   6.8907
  3.297   6.8804
  3.295   6.8495
  3.293   6.7671
  3.291   6.7259
  3.288   6.6126
  3.286   6.6435
  3.284   6.6229
  3.282   6.5302
  3.280   6.5199
  3.278   6.5199
  3.276   6.3860
  3.274   6.3036
  3.272   6.3139
  3.270   6.2830
  3.268   6.2418
  3.266   6.1491
  3.264   6.1079
  3.262   6.1697
  3.259   6.1079
  3.257   6.0358
  3.255   5.9637
  3.253   5.9328
  3.251   5.8710
  3.249   5.8401
  3.247   5.7577
  3.245   5.7165
  3.243   5.7577
  3.241   5.7989
  3.239   5.6959
  3.237   5.5826
  3.235   5.5002
  3.233   5.4693
  3.231   5.3766
  3.229   5.3663
  3.227   5.3560
  3.225   5.2839
  3.223   5.2221
  3.221   5.1397
  3.219   4.9955
  3.217   5.0573
  3.215   5.0058
  3.213   4.9028
  3.211   4.8719
  3.209   4.8307
  3.207   4.7998
  3.205   4.7792
  3.203   4.6556
  3.201   4.4187
  3.199   4.2848
  3.197   4.3672
  3.195   4.3466
  3.193   4.2642
  3.191   4.2127
  3.189   4.2127
  3.187   4.1303
  3.185   4.0170
  3.183   3.9037
  3.182   3.8419
  3.180   3.8213
  3.178   3.8831
  3.176   3.7904
  3.174   3.6668
  3.172   3.6050
  3.170   3.5947
  3.168   3.5535
  3.166   3.5226
  3.164   3.5535
  3.162   3.5741
  3.160   3.4917
  3.158   3.3887
  3.156   3.3372
  3.154   3.3784
  3.152   3.2342
  3.151   3.1518
  3.149   3.1930
  3.147   3.2239
  3.145   3.2239
  3.143   3.2239
  3.141   3.1827
  3.139   3.1930
  3.137   3.1827
  3.135   3.1621
  3.133   3.1312
  3.132   3.1621
  3.130   3.1621
  3.128   3.1930
  3.126   3.1930
  3.124   3.2033
  3.122   3.1106
  3.120   3.0076
  3.118   3.0488
  3.117   3.1518
  3.115   3.1209
  3.113   3.0076
  3.111   2.9973
  3.109   2.9870
  3.107   2.8737
  3.105   2.9046
  3.103   2.9458
  3.102   2.9458
  3.100   2.8840
  3.098   2.9149
  3.096   2.9046
  3.094   2.8222
  3.092   2.7089
  3.091   2.7192
  3.089   2.7707
  3.087   2.6883
  3.085   2.5338
  3.083   2.5029
  3.081   2.4926
  3.079   2.4720
  3.078   2.5029
  3.076   2.5235
  3.074   2.4308
  3.072   2.3896
  3.070   2.2866
  3.069   2.2866
  3.067   2.2454
  3.065   2.1733
  3.063   2.0600
  3.061   2.0909
  3.060   2.0497
  3.058   2.0085
  3.056   2.0497
  3.054   2.0806
  3.052   2.0291
  3.051   1.9055
  3.049   1.7716
  3.047   1.6789
  3.045   1.8128
  3.043   1.8540
  3.042   1.6892
  3.040   1.8025
  3.038   1.8540
  3.036   1.7304
  3.034   1.5656
  3.033   1.5450
  3.031   1.5965
  3.029   1.6789
  3.027   1.6171
  3.026   1.6274
  3.024   1.6892
  3.022   1.7304
  3.020   1.7304
  3.019   1.6995
  3.017   1.6171
  3.015   1.6583
  3.013   1.6995
  3.012   1.6995
  3.010   1.5656
  3.008   1.5759
  3.006   1.6274
  3.005   1.6171
  3.003   1.6377
  3.001   1.6583
  2.999   1.5965
  2.998   1.7613
  2.996   1.8334
  2.994   1.8128
  2.992   1.6686
  2.991   1.6171
  2.989   1.7510
  2.987   1.7716
  2.986   1.6171
  2.984   1.8334
  2.982   1.9055
  2.980   1.8643
  2.979   1.7819
  2.977   1.7407
  2.975   1.6274
  2.974   1.5759
  2.972   1.6583
  2.970   1.7716
  2.968   1.8231
  2.967   1.9261
  2.965   1.8540
  2.963   1.7922
  2.962   1.6995
  2.960   1.6068
  2.958   1.6171
  2.957   1.8334
  2.955   1.8849
  2.953   1.8643
  2.952   1.8540
  2.950   1.8952
  2.948   1.8952
  2.947   1.9055
  2.945   1.5965
  2.943   1.6068
  2.942   1.8128
  2.940   1.8437
  2.938   1.6789
  2.937   1.8437
  2.935   1.8025
  2.933   1.6583
  2.932   1.5656
  2.930   1.6274
  2.928   1.5862
  2.927   1.6686
  2.925   1.7922
  2.923   1.8952
  2.922   1.8437
  2.920   1.7716
  2.918   1.6171
  2.917   1.5965
  2.915   1.7098
  2.913   1.8643
  2.912   1.8746
  2.910   1.7922
  2.909   1.8643
  2.907   2.0600
  2.905   1.8746
  2.904   1.7201
  2.902   1.7613
  2.900   1.7716
  2.899   1.4935
  2.897   1.2875
  2.896   1.2463
  2.894   1.3802
  2.892   1.4626
  2.891   1.4626
  2.889   1.3905
  2.887   1.4214
  2.886   1.4729
  2.884   1.5656
  2.883   1.6583
  2.881   1.7201
  2.879   1.5244
  2.878   1.4214
  2.876   1.4008
  2.875   1.4214
  2.873   1.4420
  2.871   1.5965
  2.870   1.7407
  2.868   1.7407
  2.867   1.5450
  2.865   1.5656
  2.864   1.6377
  2.862   1.7407
  2.860   1.7407
  2.859   1.7922
  2.857   1.7098
  2.856   1.6480
  2.854   1.7407
  2.853   2.0497
  2.851   2.0909
  2.849   2.1630
  2.848   2.1630
  2.846   2.1527
  2.845   2.1733
  2.843   2.1115
  2.842   1.9673
  2.840   2.1424
  2.838   2.2248
  2.837   2.2145
  2.835   2.4308
  2.834   2.5235
  2.832   2.3381
  2.831   2.3278
  2.829   2.5647
  2.828   2.8943
  2.826   2.9870
  2.825   2.9870
  2.823   2.9252
  2.821   2.9458
  2.820   2.9664
  2.818   3.1518
  2.817   3.1827
  2.815   3.1106
  2.814   3.2033
  2.812   3.4299
  2.811   3.6050
  2.809   3.6668
  2.808   3.6462
  2.806   3.7389
  2.805   3.8728
  2.803   4.1921
  2.802   4.4187
  2.800   4.7174
  2.799   4.7174
  2.797   4.6556
  2.796   4.6659
  2.794   4.6968
  2.793   4.8307
  2.791   5.1397
  2.790   5.4384
  2.788   5.5723
  2.787   5.5723
  2.785   5.7268
  2.784   5.8195
  2.782   6.0049
  2.781   6.1388
  2.779   6.0255
  2.778   6.1697
  2.776   6.5199
  2.775   6.5714
  2.773   6.7568
  2.772   7.1997
  2.770   7.1585
  2.769   7.0452
  2.767   7.3542
  2.766   7.5396
  2.764   7.7353
  2.763   7.9001
  2.761   8.0237
  2.760   7.9413
  2.758   8.0443
  2.757   8.2709
  2.756   8.2915
  2.754   8.4975
  2.753   8.8580
  2.751   9.1052
  2.750   9.3215
  2.748   9.4657
  2.747   9.4348
  2.745   9.5378
  2.744   9.7541
  2.742   9.8777
  2.741  10.0013
  2.740  10.1764
  2.738  10.3824
  2.737  10.5060
  2.735  10.7532
  2.734  11.0004
  2.732  11.1858
  2.731  11.2064
  2.729  11.2270
  2.728  11.2373
  2.727  11.3609
  2.725  11.5772
  2.724  11.9995
  2.722  12.1025
  2.721  12.1128
  2.719  12.2570
  2.718  12.3394
  2.717  12.4424
  2.715  12.7411
  2.714  13.1737
  2.712  13.4724
  2.711  13.5033
  2.709  13.6475
  2.708  13.8741
  2.707  14.3376
  2.705  14.5848
  2.704  14.6981
  2.702  15.0071
  2.701  15.3573
  2.700  15.6148
  2.698  15.9135
  2.697  16.0783
  2.695  16.2740
  2.694  16.3976
  2.693  16.5006
  2.691  16.7478
  2.690  17.0053
  2.688  17.1495
  2.687  17.3967
  2.686  17.5512
  2.684  17.5821
  2.683  17.7057
  2.681  17.9529
  2.680  18.1898
  2.679  18.3031
  2.677  18.3958
  2.676  18.5606
  2.675  18.6842
  2.673  18.6636
  2.672  18.5709
  2.670  18.5915
  2.669  18.6945
  2.668  18.9520
  2.666  19.1477
  2.665  19.0035
  2.664  18.8799
  2.662  19.0962
  2.661  19.0550
  2.659  19.0241
  2.658  18.9314
  2.657  18.9932
  2.655  18.9726
  2.654  18.9829
  2.653  19.1065
  2.651  19.0138
  2.650  18.9623
  2.649  18.9623
  2.647  18.8181
  2.646  18.8799
  2.645  19.0550
  2.643  19.0653
  2.642  18.9829
  2.640  18.9726
  2.639  18.8696
  2.638  18.9314
  2.636  18.8387
  2.635  18.8490
  2.634  18.9108
  2.632  19.0550
  2.631  19.0756
  2.630  18.8284
  2.628  18.6636
  2.627  18.7460
  2.626  18.7769
  2.624  18.9520
  2.623  18.9211
  2.622  18.8078
  2.620  19.0962
  2.619  19.2919
  2.618  19.1580
  2.617  19.0756
  2.615  19.0138
  2.614  19.1683
  2.613  19.2919
  2.611  19.3743
  2.610  19.4670
  2.609  19.4979
  2.607  19.4155
  2.606  19.4567
  2.605  19.3537
  2.603  19.3640
  2.602  19.6833
  2.601  19.7863
  2.599  19.6524
  2.598  19.5288
  2.597  19.4155
  2.596  19.5185
  2.594  19.2713
  2.593  19.1168
  2.592  19.3846
  2.590  19.2713
  2.589  18.9108
  2.588  18.8593
  2.586  18.9623
  2.585  19.0962
  2.584  19.0035
  2.583  18.8902
  2.581  18.9211
  2.580  19.0962
  2.579  19.0550
  2.577  18.8902
  2.576  18.7357
  2.575  18.9108
  2.574  19.0241
  2.572  19.0550
  2.571  19.1168
  2.570  19.0344
  2.569  18.8284
  2.567  18.7357
  2.566  18.8593
  2.565  18.9829
  2.563  18.9520
  2.562  18.9108
  2.561  18.7666
  2.560  18.8696
  2.558  18.6842
  2.557  18.4061
  2.556  18.6739
  2.555  18.8078
  2.553  18.5812
  2.552  18.3855
  2.551  18.4061
  2.550  18.4885
  2.548  18.3649
  2.547  18.3752
  2.546  18.4164
  2.545  18.3134
  2.543  18.1177
  2.542  18.0559
  2.541  17.8808
  2.540  17.8499
  2.538  17.8087
  2.537  17.8808
  2.536  17.9735
  2.535  17.8602
  2.533  17.8190
  2.532  17.7469
  2.531  17.6233
  2.530  17.4997
  2.528  17.4070
  2.527  17.5409
  2.526  17.4482
  2.525  17.2628
  2.524  17.1804
  2.522  17.2628
  2.521  17.0156
  2.520  16.8302
  2.519  16.7478
  2.517  16.7993
  2.516  16.7787
  2.515  16.7787
  2.514  16.5315
  2.513  16.3255
  2.511  16.1607
  2.510  16.0371
  2.509  15.9444
  2.508  15.9959
  2.506  15.9959
  2.505  15.9135
  2.504  15.6457
  2.503  15.5118
  2.502  15.6663
  2.500  15.6663
  2.500  15.6663
  2.498  15.8302
  2.496  16.0339
  2.494  15.6944
  2.492  15.9492
  2.490  16.0672
  2.488  15.9291
  2.486  15.7801
  2.484  15.9999
  2.482  15.5499
  2.480  15.5051
  2.478  15.2275
  2.476  15.3640
  2.474  15.0865
  2.472  14.9413
  2.470  14.5455
  2.468  14.7291
  2.466  14.5764
  2.464  14.5679
  2.462  14.8423
  2.460  14.3714
  2.458  14.5281
  2.456  14.6876
  2.454  14.7752
  2.452  14.6904
  2.450  14.9867
  2.448  15.1761
  2.446  15.0060
  2.444  15.3181
  2.442  15.7497
  2.440  15.6865
  2.438  16.0877
  2.436  15.9541
  2.434  16.3724
  2.432  16.3832
  2.430  16.7177
  2.428  16.8021
  2.426  16.8831
  2.424  17.0964
  2.422  17.1083
  2.420  17.3360
  2.418  17.3098
  2.416  17.2113
  2.414  17.2697
  2.412  17.2470
  2.410  16.8926
  2.408  16.7223
  2.406  16.5122
  2.404  16.3741
  2.402  16.0858
  2.400  15.8641
  2.398  15.5357
  2.396  15.1316
  2.394  15.1013
  2.392  14.9027
  2.390  14.6832
  2.388  14.5041
  2.386  14.5884
  2.384  14.6697
  2.382  14.7887
  2.380  15.1732
  2.378  15.5820
  2.376  15.9490
  2.374  16.4910
  2.372  17.0289
  2.370  17.6082
  2.368  18.1143
  2.366  18.7135
  2.364  19.4937
  2.362  19.9952
  2.360  20.5744
  2.358  21.0790
  2.356  21.7912
  2.354  22.3003
  2.352  22.7359
  2.350  23.0077
  2.348  23.5201
  2.346  24.0306
  2.344  24.4276
  2.342  24.8035
  2.340  25.0900
  2.338  25.3905
  2.336  25.7731
  2.334  26.0920
  2.332  26.3662
  2.330  26.6105
  2.328  26.7797
  2.326  27.0332
  2.324  27.3614
  2.322  27.5447
  2.320  27.8480
  2.318  27.9846
  2.316  28.2601
  2.314  28.4291
  2.312  28.5034
  2.310  28.6778
  2.308  28.7952
  2.306  28.7587
  2.304  28.8964
  2.302  28.9532
  2.300  29.0727
  2.298  29.0133
  2.296  29.0885
  2.294  29.1052
  2.292  29.0461
  2.290  29.0644
  2.288  29.1059
  2.286  29.0002
  2.284  28.9864
  2.282  28.9723
  2.280  28.8332
  2.278  28.6873
  2.276  28.5468
  2.274  28.3999
  2.272  28.0303
  2.270  27.7731
  2.268  27.6040
  2.266  27.1182
  2.264  26.5567
  2.262  26.1072
  2.260  25.5447
  2.258  25.0717
  2.256  24.4663
  2.254  24.1579
  2.252  23.9747
  2.250  23.8927
  2.248  23.9122
  2.246  24.1248
  2.244  24.4574
  2.242  24.8162
  2.240  25.1348
  2.238  25.5323
  2.236  25.8116
  2.234  26.1051
  2.232  26.1612
  2.230  26.2689
  2.228  26.4668
  2.226  26.5068
  2.224  26.3914
  2.222  26.4181
  2.220  26.4266
  2.218  26.4119
  2.216  26.5107
  2.214  26.5744
  2.212  26.6202
  2.210  26.7252
  2.208  26.7727
  2.206  26.8084
  2.204  26.9724
  2.202  27.1240
  2.200  27.2061
  2.198  27.2167
  2.196  27.3874
  2.194  27.4628
  2.192  27.4430
  2.190  27.4377
  2.188  27.4392
  2.186  27.4489
  2.184  27.4160
  2.182  27.4456
  2.180  27.4036
  2.178  27.4197
  2.176  27.4487
  2.174  27.4218
  2.172  27.4397
  2.170  27.5019
  2.168  27.5253
  2.166  27.5091
  2.164  27.6071
  2.162  27.6946
  2.160  27.8226
  2.158  27.9325
  2.156  28.1443
  2.154  28.2635
  2.152  28.2849
  2.150  28.2938
  2.148  28.3502
  2.146  28.4133
  2.144  28.4234
  2.142  28.4059
  2.140  28.4708
  2.138  28.3825
  2.136  28.2724
  2.134  28.1410
  2.132  28.0279
  2.130  27.8840
  2.128  27.7841
  2.126  27.6044
  2.124  27.3709
  2.122  27.1534
  2.120  26.8875
  2.118  26.6676
  2.116  26.4423
  2.114  26.2981
  2.112  26.1046
  2.110  25.8890
  2.108  25.6873
  2.106  25.4674
  2.104  25.2186
  2.102  24.9001
  2.100  24.6797
  2.098  24.5112
  2.096  24.3703
  2.094  24.1365
  2.092  23.9012
  2.090  23.7747
  2.088  23.5201
  2.086  23.4342
  2.084  23.3070
  2.082  23.2393
  2.080  23.0040
  2.078  22.9670
  2.076  22.9950
  2.074  22.8154
  2.072  22.7355
  2.070  22.6213
  2.068  22.6040
  2.066  22.4102
  2.064  22.1815
  2.062  22.1028
  2.060  21.9001
  2.058  21.6984
  2.056  21.4007
  2.054  21.0353
  2.052  20.6547
  2.050  20.3656
  2.048  20.1006
  2.046  19.7632
  2.044  19.4691
  2.042  19.0940
  2.040  18.8600
  2.038  18.6901
  2.036  18.5545
  2.034  18.4987
  2.032  18.5182
  2.030  18.5667
  2.028  18.6512
  2.026  18.7380
  2.024  19.0674
  2.022  19.2196
  2.020  19.3976
  2.018  19.5395
  2.016  19.6591
  2.014  19.7353
  2.012  19.7317
  2.010  19.6008
  2.008  19.4340
  2.006  19.2989
  2.004  19.1921
  2.002  18.9196
  2.000  18.6458
  1.998  18.2877
  1.996  18.1957
  1.994  17.7975
  1.992  17.6560
  1.990  17.6132
  1.988  17.4063
  1.986  17.2090
  1.984  17.3112
  1.982  17.5629
  1.980  17.8107
  1.978  18.2417
  1.976  18.6621
  1.974  19.2571
  1.972  19.7959
  1.970  20.1806
  1.968  20.5498
  1.966  20.6936
  1.964  20.5713
  1.962  20.4770
  1.960  20.0136
  1.958  19.5045
  1.956  18.8435
  1.954  18.3322
  1.952  17.7818
  1.950  17.3457
  1.948  17.4119
  1.946  17.7310
  1.944  18.0174
  1.942  18.7652
  1.940  19.2813
  1.938  20.1738
  1.936  20.8735
  1.934  21.7587
  1.932  22.6122
  1.930  23.2340
  1.928  24.0929
  1.926  24.6346
  1.924  25.3978
  1.922  26.0302
  1.920  26.6844
  1.918  27.3660
  1.916  27.9536
  1.914  28.5608
  1.912  29.4237
  1.910  29.8821
  1.908  30.6442
  1.906  31.4024
  1.904  32.0411
  1.902  32.6071
  1.900  33.1655
  1.898  33.7267
  1.896  34.3851
  1.894  34.8556
  1.892  35.3173
  1.890  35.9079
  1.888  36.2939
  1.886  36.8357
  1.884  37.3398
  1.882  37.7004
  1.880  38.1633
  1.878  38.5820
  1.876  39.0336
  1.874  39.3521
  1.872  39.7452
  1.870  40.0170
  1.868  40.1647
  1.866  40.5029
  1.864  40.7294
  1.862  40.9778
  1.860  41.2670
  1.858  41.6351
  1.856  41.8064
  1.854  42.2877
  1.852  42.5387
  1.850  42.5553
  1.848  42.8943
  1.846  43.0431
  1.844  43.1155
  1.842  43.2025
  1.840  43.2950
  1.838  43.2719
  1.836  43.1549
  1.834  43.1993
  1.832  42.9028
  1.830  42.9097
  1.828  42.8239
  1.826  42.7758
  1.824  42.7032
  1.822  42.4706
  1.820  42.2990
  1.818  42.3407
  1.816  42.2069
  1.814  41.9068
  1.812  41.6856
  1.810  41.6235
  1.808  41.3983
  1.806  41.2073
  1.804  40.9256
  1.802  40.6012
  1.800  40.2829
  1.798  40.2248
  1.796  39.9035
  1.794  39.7726
  1.792  39.5954
  1.790  39.6056
  1.788  39.3828
  1.786  39.5110
  1.784  39.6306
  1.782  39.6585
  1.780  39.6812
  1.778  39.9284
  1.776  39.9773
  1.774  40.0447
  1.772  40.0881
  1.770  40.3012
  1.768  40.1782
  1.766  40.3371
  1.764  40.1698
  1.762  40.3126
  1.760  40.5011
  1.758  40.7834
  1.756  41.0166
  1.754  41.0999
  1.752  41.3241
  1.750  41.3464
  1.748  41.5371
  1.746  41.7216
  1.744  41.7176
  1.742  41.7239
  1.740  41.6480
  1.738  41.6228
  1.736  41.6814
  1.734  41.4811
  1.732  41.3524
  1.730  41.1958
  1.728  41.1710
  1.726  41.0010
  1.724  40.8764
  1.722  40.5817
  1.720  40.5564
  1.718  40.4235
  1.716  40.1672
  1.714  40.0357
  1.712  40.0001
  1.710  39.8352
  1.708  39.7075
  1.706  39.6597
  1.704  39.4717
  1.702  39.4571
  1.700  39.3166
  1.698  39.4182
  1.696  39.3448
  1.694  39.1973
  1.692  39.3277
  1.690  39.4753
  1.688  39.6209
  1.686  39.6714
  1.684  39.6156
  1.682  39.4750
  1.680  39.6165
  1.678  39.5214
  1.676  39.4501
  1.674  39.3038
  1.672  39.1758
  1.670  39.1641
  1.668  39.1071
  1.666  38.8091
  1.664  38.7749
  1.662  38.5848
  1.660  38.3497
  1.658  38.2302
  1.656  38.0899
  1.654  37.8765
  1.652  37.7131
  1.650  37.5736
  1.648  37.4373
  1.646  37.3431
  1.644  37.1344
  1.642  37.0403
  1.640  37.0390
  1.638  36.8823
  1.636  36.7338
  1.634  36.6950
  1.632  36.5209
  1.630  36.3587
  1.628  36.2368
  1.626  36.0956
  1.624  35.9140
  1.622  35.7785
  1.620  35.6724
  1.618  35.5268
  1.616  35.4353
  1.614  35.4305
  1.612  35.2596
  1.610  35.3370
  1.608  35.4754
  1.606  35.4610
  1.604  35.4535
  1.602  35.6093
  1.600  35.7660
  1.598  35.7976
  1.596  35.7710
  1.594  35.7360
  1.592  35.8161
  1.590  35.9913
  1.588  35.9876
  1.586  35.9831
  1.584  36.0665
  1.582  36.1054
  1.580  36.1365
  1.578  36.1680
  1.576  36.2689
  1.574  36.2939
  1.572  36.2784
  1.570  36.4030
  1.568  36.4831
  1.566  36.4178
  1.564  36.4028
  1.562  36.5240
  1.560  36.4999
  1.558  36.3894
  1.556  36.2799
  1.554  36.1986
  1.552  36.1885
  1.550  36.0713
  1.548  35.8715
  1.546  35.8003
  1.544  35.8253
  1.542  35.7961
  1.540  35.6725
  1.538  35.4688
  1.536  35.3126
  1.534  35.0402
  1.532  34.7733
  1.530  34.4610
  1.528  34.1147
  1.526  34.1771
  1.524  34.1372
  1.522  34.0151
  1.520  34.1188
  1.518  34.1538
  1.516  34.2184
  1.514  34.2623
  1.512  34.2188
  1.510  34.4026
  1.508  34.4821
  1.506  34.4720
  1.504  34.5632
  1.502  34.6157
  1.500  34.5803
  1.498  34.3932
  1.496  33.9574
  1.494  33.1839
  1.492  31.9903
  1.490  30.7669
  1.488  29.7807
  1.486  29.3675
  1.484  29.6703
  1.482  30.1685
  1.480  31.1054
  1.478  32.2230
  1.476  33.3121
  1.474  34.1499
  1.472  34.8475
  1.470  35.4344
  1.468  35.9541
  1.466  36.2730
  1.464  36.6335
  1.462  37.2181
  1.460  37.7502
  1.458  38.3453
  1.456  39.2814
  1.454  40.1870
  1.452  41.0106
  1.450  41.6966
  1.448  42.3783
  1.446  43.2313
  1.444  43.8228
  1.442  44.4795
  1.440  44.9478
  1.438  45.5716
  1.436  46.0486
  1.434  46.4323
  1.432  46.8592
  1.430  47.3735
  1.428  47.8920
  1.426  48.2561
  1.424  48.5958
  1.422  48.7474
  1.420  49.0090
  1.418  49.3644
  1.416  49.5803
  1.414  49.6933
  1.412  49.6799
  1.410  49.8147
  1.408  50.0631
  1.406  50.1992
  1.404  50.2533
  1.402  50.3756
  1.400  50.4555
  1.398  50.3941
  1.396  50.4298
  1.394  50.3764
  1.392  50.5755
  1.390  50.7775
  1.388  50.9526
  1.386  51.0226
  1.384  51.0848
  1.382  51.1666
  1.380  51.3363
  1.378  51.5670
  1.376  51.4361
  1.374  51.4712
  1.372  51.4884
  1.370  51.5376
  1.368  51.6435
  1.366  51.6036
  1.364  51.5702
  1.362  51.4178
  1.360  51.3847
  1.358  51.3696
  1.356  51.2034
  1.354  51.3888
  1.352  51.5016
  1.350  51.8103
  1.348  52.0857
  1.346  52.4014
  1.344  52.5285
  1.342  52.7512
  1.340  52.8066
  1.338  52.8704
  1.336  53.1350
  1.334  53.1819
  1.332  53.4664
  1.330  53.6586
  1.328  54.1970
  1.326  54.1089
  1.324  54.2994
  1.322  54.4036
  1.320  54.5032
  1.318  54.5446
  1.316  54.5082
  1.314  54.5963
  1.312  54.4650
  1.310  54.5203
  1.308  54.3673
  1.306  54.5628
  1.304  54.6399
  1.302  54.6418
  1.300  54.4056
  1.298  54.6139
  1.296  54.4573
  1.294  54.4161
  1.292  54.5822
  1.290  54.2874
  1.288  54.1220
  1.286  54.1715
  1.284  53.9780
  1.282  53.8265
  1.280  53.8046
  1.278  53.6484
  1.276  53.7182
  1.274  53.3759
  1.272  53.4830
  1.270  53.2976
  1.268  53.0940
  1.266  53.2470
  1.264  53.0416
  1.262  52.9207
  1.260  52.9087
  1.258  52.9555
  1.256  52.5733
  1.254  52.7965
  1.252  52.6601
  1.250  52.7523
  1.248  52.6143
  1.246  52.6083
  1.244  52.6009
  1.242  52.5400
  1.240  52.6431
  1.238  52.4027
  1.236  52.4521
  1.234  52.2584
  1.232  52.4418
  1.230  52.4560
  1.228  52.2522
  1.226  52.0848
  1.224  52.0477
  1.222  52.0751
  1.220  52.0766
  1.218  52.0243
  1.216  52.1623
  1.214  52.2562
  1.212  52.2027
  1.210  52.5121
  1.208  52.4621
  1.206  52.8570
  1.204  52.8584
  1.202  53.2252
  1.200  53.4618
  1.198  53.4063
  1.196  53.6739
  1.194  53.9551
  1.192  54.0301
  1.190  54.0658
  1.188  54.2947
  1.186  54.5314
  1.184  54.7110
  1.182  54.9564
  1.180  54.9981
  1.178  55.1783
  1.176  55.3556
  1.174  55.4981
  1.172  55.7173
  1.170  55.7201
  1.168  55.8592
  1.166  56.0982
  1.164  56.0459
  1.162  56.2071
  1.160  56.2695
  1.158  56.1494
  1.156  56.1903
  1.154  56.1695
  1.152  56.3064
  1.150  56.2221
  1.148  56.2666
  1.146  56.1714
  1.144  56.3566
  1.142  56.3390
  1.140  56.3625
  1.138  56.2282
  1.136  56.2501
  1.134  56.4375
  1.132  56.4098
  1.130  56.4264
  1.128  56.4668
  1.126  56.3138
  1.124  56.2389
  1.122  56.1884
  1.120  56.3635
  1.118  56.3531
  1.116  56.2222
  1.114  56.2672
  1.112  56.2703
  1.110  56.3407
  1.108  56.1575
  1.106  56.0741
  1.104  56.2747
  1.102  56.3252
  1.100  56.2022
  1.098  56.1235
  1.096  56.2857
  1.094  56.1611
  1.092  56.2167
  1.090  56.1548
  1.088  56.0893
  1.086  56.0998
  1.084  56.0865
  1.082  55.9476
  1.080  55.9847
  1.078  56.0821
  1.076  55.9943
  1.074  56.0109
  1.072  55.9601
  1.070  55.9925
  1.068  55.7278
  1.066  55.7491
  1.064  55.6506
  1.062  55.5704
  1.060  55.6436
  1.058  55.6496
  1.056  55.5104
  1.054  55.4354
  1.052  55.2932
  1.050  55.1836
  1.048  55.2547
  1.046  55.3180
  1.044  55.1309
  1.042  55.0636
  1.040  54.9088
  1.038  54.7434
  1.036  54.7571
  1.034  54.6483
  1.032  54.6853
  1.030  54.6240
  1.028  54.4298
  1.026  54.3678
  1.024  54.3269
  1.022  54.4453
  1.020  54.2977
  1.018  54.1727
  1.016  54.2220
  1.014  54.2518
  1.012  54.1751
  1.010  54.0984
  1.008  54.0228
  1.006  54.1646
  1.004  54.2262
  1.002  54.0978
  1.000  54.0432
  0.998  54.0683
  0.996  54.1664
  0.994  54.0919
  0.992  54.0162
  0.990  53.9440
  0.988  53.8781
  0.986  53.9435
  0.984  53.7241
  0.982  53.6279
  0.980  53.6609
  0.978  53.6143
  0.976  53.4869
  0.974  53.4003
  0.972  53.3258
  0.970  53.2905
  0.968  53.2289
  0.966  53.1051
  0.964  53.0502
  0.962  52.9517
  0.960  52.8310
  0.958  52.7818
  0.956  52.7968
  0.954  52.7164
  0.952  52.6116
  0.950  52.4545
  0.948  52.3122
  0.946  52.3294
  0.944  52.2640
  0.942  52.1895
  0.940  52.0427
  0.938  51.8690
  0.936  51.7742
  0.934  51.6898
  0.932  51.6609
  0.930  51.5524
  0.928  51.3555
  0.926  51.3381
  0.924  51.4051
  0.922  51.2240
  0.920  51.0511
  0.918  51.0410
  0.916  50.9293
  0.914  50.8631
  0.912  50.7984
  0.910  50.7834
  0.908  50.7878
  0.906  50.6218
  0.904  50.5587
  0.902  50.5481
  0.900  50.4353
  0.898  50.5070
  0.896  50.4584
  0.894  50.3421
  0.892  50.3544
  0.890  50.4214
  0.888  50.3157
  0.886  50.2135
  0.884  50.5603
  0.882  50.0793
  0.880  50.0471
  0.878  50.0301
  0.876  49.9197
  0.874  50.2652
  0.872  49.9995
  0.870  49.8625
  0.868  49.8319
  0.866  49.6159
  0.864  50.0078
  0.862  49.8234
  0.860  49.6054
  0.858  49.9047
  0.856  50.0650
  0.854  50.1606
  0.852  50.0755
  0.850  50.0710
  0.848  50.0800
  0.846  50.0589
  0.844  50.1050
  0.842  50.1062
  0.840  50.1326
  0.838  50.1126
  0.836  50.1037
  0.834  50.1376
  0.832  50.1796
  0.830  50.2086
  0.828  50.2143
  0.826  50.2604
  0.824  50.3466
  0.822  50.3619
  0.820  50.3431
  0.818  50.3977
  0.816  50.4632
  0.814  50.5103
  0.812  50.4933
  0.810  50.5459
  0.808  50.5820
  0.806  50.6133
  0.804  50.6664
  0.802  50.7008
  0.800  50.7626
  0.798  50.8159
  0.796  50.8439
  0.794  50.8515
  0.792  50.9445
  0.790  50.9695
  0.788  50.9910
  0.786  51.0604
  0.784  51.1168
  0.782  51.1336
  0.780  51.1654
  0.778  51.2277
  0.776  51.2428
  0.774  51.2666
  0.772  51.2985
  0.770  51.3204
  0.768  51.3313
  0.766  51.3468
  0.764  51.3545
  0.762  51.3707
  0.760  51.3817
  0.758  51.3638
  0.756  51.3582
  0.754  51.3398
  0.752  51.3139
  0.750  51.3092
  0.748  51.3090
  0.746  51.2608
  0.744  51.2040
  0.742  51.1690
  0.740  51.1103
  0.738  51.0451
  0.736  51.0081
  0.734  50.9125
  0.732  50.8606
  0.730  50.7764
  0.728  50.6885
  0.726  50.5901
  0.724  50.4501
  0.722  50.3802
  0.720  50.2538
  0.718  50.1360
  0.716  50.0095
  0.714  49.8840
  0.712  49.7616
  0.710  49.6015
  0.708  49.4752
  0.706  49.3287
  0.704  49.1878
  0.702  49.0490
  0.700  48.8997
  0.698  48.7356
  0.696  48.5815
  0.694  48.4226
  0.692  48.2884
  0.690  48.1331
  0.688  47.9689
  0.686  47.8036
  0.684  47.6769
  0.682  47.5107
  0.680  47.3482
  0.678  47.1812
  0.676  47.0425
  0.674  46.8787
  0.672  46.7241
  0.670  46.5614
  0.668  46.3976
  0.666  46.2182
  0.664  46.0729
  0.662  45.9210
  0.660  45.7683
  0.658  45.5971
  0.656  45.4442
  0.654  45.2701
  0.652  45.1175
  0.650  44.9565
  0.648  44.7772
  0.646  44.6183
  0.644  44.4467
  0.642  44.2727
  0.640  44.0952
  0.638  43.9201
  0.636  43.7358
  0.634  43.5305
  0.632  43.3380
  0.630  43.1148
  0.628  42.9024
  0.626  42.6838
  0.624  42.4611
  0.622  42.2193
  0.620  41.9487
  0.618  41.6830
  0.616  41.3664
  0.614  41.1009
  0.612  40.7625
  0.610  40.4188
  0.608  40.0627
  0.606  39.6789
  0.604  39.2661
  0.602  38.8164
  0.600  38.3959
  0.598  37.9045
  0.596  37.4202
  0.594  36.8912
  0.592  36.3695
  0.590  35.7900
  0.588  35.2334
  0.586  34.6485
  0.584  34.0457
  0.582  33.4311
  0.580  32.8265
  0.578  32.2182
  0.576  31.6261
  0.574  31.0369
  0.572  30.4527
  0.570  29.9048
  0.568  29.3831
  0.566  28.8738
  0.564  28.3933
  0.562  27.9382
  0.560  27.5533
  0.558  27.1601
  0.556  26.8243
  0.554  26.4924
  0.552  26.2090
  0.550  25.9378
  0.548  25.6866
  0.546  25.4819
  0.544  25.2746
  0.542  25.0950
  0.540  24.9230
  0.538  24.7763
  0.536  24.6339
  0.534  24.5010
  0.532  24.3866
  0.530  24.2741
  0.528  24.1661
  0.526  24.0644
  0.524  23.9636
  0.522  23.8828
  0.520  23.7886
  0.518  23.6941
  0.516  23.6036
  0.514  23.5131
  0.512  23.4156
  0.510  23.3185
  0.508  23.2132
  0.506  23.1095
  0.504  23.0218
  0.502  22.9248
  0.500  22.8308
  0.498  22.7547
  0.496  22.6774
  0.494  22.6014
  0.492  22.5390
  0.490  22.4791
  0.488  22.4267
  0.486  22.3823
  0.484  22.3651
  0.482  22.3443
  0.480  22.2930
  0.478  22.2273
  0.476  22.1609
  0.474  22.1007
  0.472  22.0410
  0.470  21.9770
  0.468  21.9161
  0.466  21.8457
  0.464  21.7681
  0.462  21.6898
  0.460  21.5991
  0.458  21.5131
  0.456  21.4170
  0.454  21.3513
  0.452  21.2716
  0.450  21.1800
  0.448  21.1014
  0.446  21.0346
  0.444  20.9654
  0.442  20.9007
  0.440  20.8343
  0.438  20.7679
  0.436  20.6905
  0.434  20.6376
  0.432  20.5658
  0.430  20.5035
  0.428  20.4496
  0.426  20.4011
  0.424  20.3528
  0.422  20.3066
  0.420  20.2612
  0.418  20.2186
  0.416  20.1797
  0.414  20.1495
  0.412  20.1177
  0.410  20.0788
  0.408  20.0482
  0.406  20.0132
  0.404  19.9885
  0.402  19.9595
  0.400  19.9379
