Name: Basalt
Type: Rocks
Class: Igneous
Subclass: Mafic
Particle Size: Solid
Sample No.: Basalt.H1
Owner: JHU
Wavelength range: All
Origin: from Chimney Rock, Somerset County, New Jersey, via Ward's 
Scientific (Cat. No. W-36)
Description: A greenish-black aphanitic rock.





Measurement: Directional (10 degree) hemispherical reflectance
First Column: X
Second Column: Y
X Units: Wavelength (micrometers)
Y Units: Reflectance (percent)
First X Value: 14.0112
Last X Value: 0.4000
Number of X Values: 2844
Additional information: basal1a.txt

14.0112	3.5616
13.9734	3.0000
13.9359	1.9767
13.8985	2.7182
13.8614	2.4686
13.8244	1.9618
13.7876	2.7302
13.7511	2.9384
13.7147	2.0958
13.6785	2.3138
13.6425	2.7234
13.6067	1.9345
13.5711	2.4140
13.5356	3.1284
13.5004	3.3738
13.4653	2.9356
13.4304	2.4736
13.3957	2.2990
13.3612	2.5685
13.3269	2.9655
13.2927	2.9578
13.2587	3.0494
13.2249	3.1382
13.1912	3.1114
13.1577	3.0190
13.1244	3.0488
13.0913	2.9847
13.0583	2.9704
13.0255	3.0525
12.9929	3.0476
12.9604	3.0849
12.9281	3.1714
12.8959	3.2941
12.8639	3.2367
12.8321	3.1641
12.8004	3.2060
12.7688	3.1884
12.7375	3.1540
12.7063	3.0551
12.6752	3.1446
12.6443	3.3084
12.6135	3.4038
12.5829	3.3670
12.5524	3.4176
12.5221	3.5381
12.4919	3.7500
12.4619	3.6816
12.4320	3.6249
12.4023	3.6049
12.3727	3.6075
12.3432	3.7008
12.3139	3.9354
12.2847	4.1049
12.2557	4.1486
12.2268	4.1175
12.1980	4.2028
12.1694	4.2891
12.1409	4.4327
12.1125	4.5371
12.0843	4.5475
12.0562	4.5389
12.0282	4.6818
12.0003	4.8143
11.9726	4.8509
11.9450	4.9193
11.9176	5.1473
11.8903	5.2690
11.8631	5.3200
11.8360	5.4328
11.8090	5.5233
11.7822	5.6698
11.7555	5.8130
11.7289	5.9051
11.7024	6.0232
11.6760	6.1662
11.6498	6.2792
11.6237	6.3316
11.5977	6.5280
11.5718	6.7005
11.5460	6.8433
11.5203	6.9387
11.4948	7.0237
11.4694	7.1514
11.4440	7.2626
11.4188	7.4187
11.3937	7.5586
11.3688	7.6823
11.3439	7.7976
11.3191	7.9212
11.2944	8.0109
11.2699	8.1084
11.2455	8.1914
11.2211	8.2673
11.1969	8.3826
11.1727	8.4756
11.1487	8.5296
11.1248	8.6086
11.1010	8.6678
11.0773	8.7612
11.0536	8.9093
11.0301	9.0084
11.0067	9.0654
10.9834	9.1631
10.9602	9.2745
10.9370	9.3560
10.9140	9.4594
10.8911	9.5711
10.8682	9.6844
10.8455	9.7312
10.8229	9.7722
10.8003	9.8606
10.7779	9.9748
10.7555	10.0296
10.7332	10.0319
10.7111	10.0795
10.6890	10.1311
10.6670	10.1847
10.6451	10.2468
10.6233	10.2426
10.6015	10.2269
10.5799	10.2468
10.5584	10.3158
10.5369	10.3301
10.5155	10.3284
10.4942	10.3410
10.4730	10.3600
10.4519	10.3781
10.4309	10.3875
10.4099	10.3720
10.3891	10.3891
10.3683	10.3418
10.3476	10.2820
10.3270	10.2363
10.3065	10.1608
10.2860	10.0976
10.2656	10.0898
10.2454	10.0547
10.2251	9.9823
10.2050	10.0350
10.1850	10.1116
10.1650	10.1198
10.1451	10.1732
10.1253	10.2252
10.1056	10.3237
10.0859	10.4069
10.0663	10.4381
10.0468	10.5251
10.0274	10.6031
10.0080	10.6366
9.9887	10.6776
9.9695	10.7400
9.9504	10.7777
9.9313	10.7550
9.9123	10.7200
9.8934	10.7039
9.8746	10.7290
9.8558	10.7060
9.8371	10.6922
9.8185	10.6886
9.7999	10.6615
9.7814	10.6197
9.7630	10.5590
9.7447	10.4810
9.7264	10.4651
9.7082	10.4735
9.6900	10.3239
9.6719	10.1602
9.6539	10.2410
9.6360	10.2374
9.6181	10.1937
9.6003	10.1221
9.5825	10.0638
9.5649	10.0209
9.5472	9.9961
9.5297	9.9546
9.5122	9.9056
9.4948	9.8093
9.4774	9.7818
9.4601	9.8205
9.4429	9.7680
9.4257	9.7090
9.4086	9.7331
9.3916	9.7906
9.3746	9.8025
9.3577	9.8514
9.3408	9.9059
9.3240	9.8875
9.3073	9.8896
9.2906	9.8695
9.2740	9.8566
9.2574	9.8761
9.2409	9.8875
9.2245	9.8885
9.2081	9.8888
9.1918	9.8566
9.1755	9.8735
9.1593	9.8742
9.1431	9.8498
9.1270	9.8374
9.1110	9.8301
9.0950	9.7769
9.0791	9.7312
9.0632	9.6670
9.0474	9.5418
9.0316	9.4624
9.0159	9.3668
9.0003	9.1886
8.9847	9.0298
8.9691	8.8833
8.9536	8.7319
8.9382	8.5402
8.9228	8.3034
8.9075	8.0714
8.8922	7.8689
8.8770	7.6205
8.8618	7.3959
8.8467	7.1934
8.8316	6.9860
8.8166	6.7476
8.8016	6.5473
8.7867	6.3605
8.7718	6.1919
8.7570	6.0295
8.7422	5.8647
8.7275	5.7574
8.7129	5.6611
8.6982	5.5319
8.6837	5.4255
8.6692	5.3639
8.6547	5.2720
8.6403	5.1706
8.6259	5.0813
8.6116	5.0154
8.5973	4.9730
8.5830	4.9073
8.5688	4.8511
8.5547	4.7986
8.5406	4.7280
8.5266	4.6335
8.5126	4.5724
8.4986	4.5511
8.4847	4.4943
8.4708	4.4255
8.4570	4.3528
8.4432	4.2857
8.4295	4.1904
8.4158	4.0709
8.4022	3.9780
8.3886	3.9056
8.3750	3.8083
8.3615	3.7164
8.3481	3.6119
8.3347	3.4922
8.3213	3.3766
8.3079	3.2459
8.2946	3.0907
8.2814	2.9238
8.2682	2.7782
8.2550	2.6309
8.2419	2.5106
8.2288	2.3751
8.2158	2.2378
8.2028	2.1387
8.1898	2.0309
8.1769	1.9282
8.1640	1.8569
8.1512	1.7850
8.1384	1.7337
8.1256	1.6769
8.1129	1.5825
8.1002	1.5321
8.0876	1.5124
8.0750	1.4735
8.0624	1.4229
8.0499	1.3860
8.0374	1.3549
8.0250	1.3402
8.0126	1.3467
8.0002	1.3184
7.9879	1.3057
7.9756	1.2876
7.9634	1.2642
7.9512	1.2490
7.9390	1.2593
7.9268	1.2546
7.9147	1.2241
7.9027	1.2138
7.8906	1.2096
7.8786	1.2206
7.8667	1.2180
7.8548	1.2136
7.8429	1.2070
7.8310	1.2241
7.8192	1.2387
7.8075	1.2312
7.7957	1.2197
7.7840	1.1998
7.7723	1.2124
7.7607	1.2431
7.7491	1.2546
7.7375	1.2577
7.7260	1.2497
7.7145	1.2556
7.7031	1.2610
7.6916	1.2535
7.6802	1.2647
7.6689	1.2771
7.6575	1.2251
7.6462	1.2459
7.6350	1.2979
7.6238	1.3181
7.6126	1.3446
7.6014	1.3547
7.5903	1.3571
7.5792	1.3462
7.5681	1.3547
7.5571	1.3631
7.5461	1.3690
7.5351	1.3826
7.5242	1.3781
7.5133	1.3739
7.5024	1.3788
7.4916	1.3938
7.4807	1.4200
7.4700	1.4316
7.4592	1.4363
7.4485	1.4398
7.4378	1.4536
7.4272	1.4557
7.4165	1.4651
7.4059	1.4901
7.3954	1.4878
7.3848	1.4826
7.3743	1.4761
7.3639	1.4868
7.3534	1.4977
7.3430	1.4974
7.3326	1.5202
7.3223	1.5471
7.3119	1.5593
7.3016	1.5462
7.2914	1.5478
7.2811	1.5621
7.2709	1.5785
7.2607	1.5896
7.2506	1.5949
7.2404	1.6020
7.2303	1.5912
7.2203	1.5912
7.2102	1.6104
7.2002	1.6408
7.1902	1.6451
7.1803	1.6268
7.1703	1.6355
7.1604	1.6692
7.1506	1.6697
7.1407	1.6652
7.1309	1.6772
7.1211	1.6758
7.1113	1.6818
7.1016	1.6793
7.0919	1.7041
7.0822	1.7192
7.0725	1.7421
7.0629	1.7395
7.0533	1.7278
7.0437	1.7346
7.0341	1.7431
7.0246	1.7390
7.0151	1.7501
7.0056	1.7632
6.9962	1.7855
6.9867	1.7894
6.9773	1.7974
6.9679	1.8007
6.9586	1.8037
6.9493	1.7867
6.9400	1.7702
6.9307	1.7995
6.9214	1.8272
6.9122	1.8239
6.9030	1.8155
6.8938	1.8213
6.8847	1.8394
6.8755	1.8314
6.8664	1.8272
6.8573	1.8400
6.8483	1.8535
6.8393	1.8621
6.8302	1.8712
6.8213	1.8607
6.8123	1.8673
6.8034	1.9083
6.7944	1.8998
6.7855	1.8987
6.7767	1.9057
6.7678	1.8900
6.7590	1.8900
6.7502	1.9005
6.7414	1.9167
6.7327	1.9378
6.7239	1.9350
6.7152	1.9327
6.7065	1.9594
6.6979	1.9673
6.6892	1.9549
6.6806	1.9455
6.6720	1.9676
6.6634	1.9763
6.6549	1.9662
6.6464	1.9662
6.6378	1.9758
6.6294	1.9812
6.6209	2.0046
6.6124	2.0032
6.6040	1.9857
6.5956	1.9821
6.5872	1.9844
6.5789	2.0041
6.5705	1.9999
6.5622	1.9906
6.5539	2.0051
6.5456	2.0051
6.5374	1.9933
6.5292	1.9903
6.5209	2.0117
6.5128	2.0200
6.5046	2.0149
6.4964	2.0041
6.4883	1.9976
6.4802	1.9880
6.4721	1.9849
6.4640	1.9910
6.4560	1.9961
6.4480	1.9953
6.4399	1.9852
6.4320	1.9868
6.4240	1.9912
6.4160	2.0044
6.4081	1.9966
6.4002	1.9814
6.3923	1.9910
6.3844	2.0006
6.3766	2.0078
6.3687	2.0147
6.3609	2.0138
6.3531	2.0109
6.3454	1.9987
6.3376	1.9884
6.3299	2.0067
6.3221	2.0226
6.3144	2.0037
6.3068	1.9865
6.2991	1.9860
6.2914	1.9990
6.2838	2.0075
6.2762	2.0194
6.2686	2.0088
6.2611	2.0086
6.2535	2.0016
6.2460	1.9953
6.2385	1.9945
6.2310	1.9978
6.2235	2.0098
6.2160	2.0025
6.2086	1.9969
6.2011	2.0062
6.1937	2.0104
6.1863	1.9980
6.1790	2.0018
6.1716	2.0029
6.1643	1.9959
6.1570	1.9932
6.1496	1.9976
6.1424	1.9969
6.1351	1.9943
6.1278	2.0135
6.1206	2.0133
6.1134	2.0107
6.1062	2.0075
6.0990	2.0179
6.0918	2.0290
6.0847	2.0037
6.0776	2.0032
6.0704	2.0102
6.0633	2.0337
6.0563	2.0496
6.0492	2.0496
6.0421	2.0405
6.0351	2.0341
6.0281	2.0320
6.0211	2.0271
6.0141	2.0486
6.0071	2.0756
6.0002	2.0943
5.9932	2.0805
5.9863	2.0810
5.9794	2.0899
5.9725	2.0885
5.9657	2.0852
5.9588	2.0986
5.9520	2.1124
5.9451	2.1080
5.9383	2.1145
5.9315	2.1213
5.9247	2.1384
5.9180	2.1600
5.9112	2.1501
5.9045	2.1478
5.8978	2.1598
5.8911	2.1771
5.8844	2.1862
5.8777	2.1942
5.8711	2.1994
5.8644	2.2130
5.8578	2.2265
5.8512	2.2202
5.8446	2.2446
5.8380	2.2624
5.8314	2.2746
5.8249	2.2882
5.8184	2.2898
5.8118	2.3062
5.8053	2.3179
5.7988	2.3203
5.7923	2.3189
5.7859	2.3218
5.7794	2.3592
5.7730	2.3735
5.7666	2.3826
5.7602	2.3794
5.7538	2.3686
5.7474	2.3728
5.7410	2.3930
5.7347	2.4068
5.7283	2.3909
5.7220	2.3826
5.7157	2.4150
5.7094	2.4174
5.7031	2.4108
5.6969	2.4283
5.6906	2.4418
5.6844	2.4511
5.6782	2.4492
5.6719	2.4345
5.6657	2.4321
5.6596	2.4420
5.6534	2.4614
5.6472	2.4628
5.6411	2.4670
5.6349	2.4701
5.6288	2.4832
5.6227	2.4947
5.6166	2.4968
5.6106	2.4893
5.6045	2.4958
5.5984	2.5169
5.5924	2.5135
5.5864	2.5021
5.5804	2.5047
5.5744	2.5116
5.5684	2.5076
5.5624	2.5195
5.5564	2.5268
5.5505	2.5319
5.5445	2.5429
5.5386	2.5425
5.5327	2.5475
5.5268	2.5509
5.5209	2.5483
5.5151	2.5514
5.5092	2.5673
5.5033	2.5680
5.4975	2.5636
5.4917	2.5680
5.4859	2.5823
5.4801	2.5763
5.4743	2.5739
5.4685	2.5833
5.4628	2.5746
5.4570	2.5688
5.4513	2.6051
5.4455	2.6107
5.4398	2.6039
5.4341	2.5992
5.4284	2.5790
5.4228	2.5807
5.4171	2.6004
5.4114	2.5839
5.4058	2.5683
5.4002	2.6161
5.3945	2.6262
5.3889	2.6044
5.3833	2.6142
5.3778	2.6215
5.3722	2.6078
5.3666	2.6107
5.3611	2.6218
5.3555	2.6297
5.3500	2.6257
5.3445	2.6194
5.3390	2.6322
5.3335	2.6395
5.3280	2.6388
5.3225	2.6348
5.3171	2.6543
5.3116	2.6470
5.3062	2.6283
5.3008	2.6369
5.2954	2.6465
5.2900	2.6585
5.2846	2.6543
5.2792	2.6620
5.2738	2.6686
5.2684	2.6580
5.2631	2.6414
5.2578	2.6494
5.2524	2.6724
5.2471	2.6897
5.2418	2.6724
5.2365	2.6691
5.2312	2.6927
5.2260	2.6836
5.2207	2.6653
5.2154	2.6920
5.2102	2.6995
5.2050	2.6972
5.1998	2.7174
5.1945	2.7288
5.1893	2.7304
5.1842	2.7300
5.1790	2.7190
5.1738	2.7347
5.1686	2.7468
5.1635	2.7366
5.1584	2.7330
5.1532	2.7476
5.1481	2.7530
5.1430	2.7270
5.1379	2.7347
5.1328	2.7497
5.1277	2.7532
5.1227	2.7875
5.1176	2.8127
5.1126	2.8163
5.1075	2.8399
5.1025	2.8141
5.0975	2.7806
5.0925	2.7844
5.0875	2.7966
5.0825	2.8117
5.0775	2.8104
5.0726	2.8078
5.0676	2.8013
5.0627	2.8003
5.0577	2.8090
5.0528	2.8212
5.0479	2.8317
5.0430	2.8252
5.0380	2.8356
5.0332	2.8486
5.0283	2.8416
5.0234	2.8322
5.0185	2.8392
5.0137	2.8525
5.0088	2.8535
5.0040	2.8547
4.9992	2.8758
4.9944	2.8748
4.9896	2.8624
4.9848	2.8795
4.9800	2.8943
4.9752	2.9075
4.9704	2.8953
4.9657	2.8722
4.9609	2.8839
4.9562	2.9023
4.9514	2.9198
4.9467	2.9198
4.9420	2.9125
4.9373	2.9177
4.9326	2.9364
4.9279	2.9536
4.9232	2.9477
4.9186	2.9436
4.9139	2.9407
4.9092	2.9496
4.9046	2.9599
4.9000	2.9670
4.8953	2.9725
4.8907	2.9904
4.8861	2.9867
4.8815	2.9829
4.8769	3.0010
4.8723	3.0140
4.8678	3.0075
4.8632	3.0039
4.8586	3.0059
4.8541	3.0042
4.8495	2.9946
4.8450	2.9867
4.8405	2.9688
4.8360	2.9916
4.8315	3.0324
4.8270	3.0296
4.8225	3.0335
4.8180	3.0504
4.8135	3.0408
4.8090	3.0410
4.8046	3.0543
4.8001	3.0745
4.7957	3.0724
4.7913	3.0750
4.7868	3.0919
4.7824	3.0820
4.7780	3.0883
4.7736	3.0994
4.7692	3.0898
4.7648	3.0818
4.7605	3.0722
4.7561	3.0799
4.7517	3.1188
4.7474	3.1332
4.7431	3.1284
4.7387	3.0987
4.7344	3.0928
4.7301	3.1216
4.7258	3.1338
4.7215	3.1160
4.7172	3.1141
4.7129	3.1317
4.7086	3.1624
4.7043	3.1641
4.7000	3.1629
4.6958	3.1615
4.6915	3.1549
4.6873	3.1610
4.6831	3.1805
4.6788	3.1795
4.6746	3.1716
4.6704	3.1711
4.6662	3.1694
4.6620	3.1647
4.6578	3.1774
4.6536	3.1997
4.6495	3.1943
4.6453	3.1898
4.6411	3.2060
4.6370	3.2267
4.6328	3.2096
4.6287	3.2008
4.6246	3.2060
4.6205	3.2078
4.6163	3.2098
4.6122	3.2311
4.6081	3.2465
4.6040	3.2540
4.6000	3.2175
4.5959	3.1748
4.5918	3.2194
4.5877	3.2510
4.5837	3.2728
4.5796	3.2838
4.5756	3.2864
4.5716	3.2821
4.5675	3.2709
4.5635	3.2824
4.5595	3.2914
4.5555	3.2834
4.5515	3.2871
4.5475	3.2958
4.5435	3.2922
4.5395	3.2988
4.5356	3.3117
4.5316	3.3164
4.5276	3.3098
4.5237	3.3185
4.5197	3.3325
4.5158	3.3185
4.5119	3.3321
4.5080	3.3260
4.5040	3.3073
4.5001	3.3098
4.4962	3.3333
4.4923	3.3530
4.4884	3.3522
4.4846	3.3333
4.4807	3.3228
4.4768	3.3410
4.4730	3.3445
4.4691	3.3375
4.4652	3.3300
4.4614	3.3394
4.4576	3.3506
4.4537	3.3614
4.4499	3.3792
4.4461	3.3764
4.4423	3.3689
4.4385	3.3631
4.4347	3.3684
4.4309	3.3849
4.4271	3.3790
4.4233	3.3715
4.4196	3.3607
4.4158	3.3708
4.4120	3.3857
4.4083	3.3961
4.4045	3.4008
4.4008	3.3834
4.3971	3.3806
4.3934	3.3797
4.3896	3.3769
4.3859	3.4010
4.3822	3.4135
4.3785	3.4127
4.3748	3.3914
4.3711	3.3942
4.3674	3.4020
4.3638	3.4096
4.3601	3.4047
4.3564	3.4127
4.3528	3.4164
4.3491	3.4214
4.3455	3.4143
4.3418	3.3876
4.3382	3.3851
4.3346	3.4120
4.3310	3.4333
4.3273	3.4390
4.3237	3.4392
4.3201	3.4184
4.3165	3.4202
4.3129	3.4226
4.3094	3.4371
4.3058	3.4366
4.3022	3.4327
4.2986	3.4481
4.2951	3.4572
4.2915	3.4470
4.2880	3.4556
4.2844	3.4594
4.2809	3.4488
4.2774	3.4364
4.2738	3.4132
4.2703	3.4397
4.2668	3.4680
4.2633	3.4500
4.2598	3.4404
4.2563	3.4514
4.2528	3.4528
4.2493	3.4556
4.2458	3.4671
4.2424	3.4528
4.2389	3.4537
4.2354	3.4694
4.2320	3.4767
4.2285	3.4842
4.2251	3.4982
4.2216	3.4945
4.2182	3.4779
4.2148	3.4772
4.2113	3.4953
4.2079	3.4870
4.2045	3.4898
4.2011	3.4940
4.1977	3.4886
4.1943	3.4982
4.1909	3.5203
4.1875	3.5200
4.1841	3.4992
4.1808	3.4964
4.1774	3.5008
4.1740	3.4966
4.1707	3.4980
4.1673	3.4938
4.1640	3.5023
4.1606	3.5147
4.1573	3.5002
4.1540	3.4950
4.1506	3.4943
4.1473	3.5158
4.1440	3.5229
4.1407	3.5192
4.1374	3.5304
4.1341	3.5194
4.1308	3.5250
4.1275	3.5447
4.1242	3.5196
4.1209	3.5245
4.1177	3.5439
4.1144	3.5304
4.1111	3.5267
4.1079	3.5358
4.1046	3.5316
4.1014	3.5388
4.0981	3.5299
4.0949	3.5156
4.0917	3.5217
4.0884	3.5311
4.0852	3.5290
4.0820	3.5412
4.0788	3.5657
4.0756	3.5548
4.0724	3.5390
4.0692	3.5569
4.0660	3.5772
4.0628	3.5540
4.0596	3.5369
4.0565	3.5294
4.0533	3.5292
4.0501	3.5473
4.0470	3.5512
4.0438	3.5519
4.0406	3.5611
4.0375	3.5538
4.0344	3.5241
4.0312	3.5196
4.0281	3.5433
4.0250	3.5564
4.0218	3.5602
4.0187	3.5725
4.0156	3.5796
4.0125	3.5777
4.0094	3.5653
4.0063	3.5691
4.0032	3.5847
4.0001	3.5733
3.9970	3.5367
3.9940	3.5296
3.9909	3.5691
3.9878	3.5850
3.9847	3.5636
3.9817	3.5571
3.9786	3.5707
3.9756	3.5606
3.9725	3.5616
3.9695	3.5805
3.9665	3.5857
3.9634	3.5845
3.9604	3.5782
3.9574	3.5620
3.9544	3.5670
3.9513	3.5779
3.9483	3.5649
3.9453	3.5538
3.9423	3.5561
3.9393	3.5766
3.9363	3.5794
3.9333	3.5704
3.9304	3.5651
3.9274	3.5742
3.9244	3.5602
3.9214	3.5590
3.9185	3.5899
3.9155	3.5920
3.9126	3.5683
3.9096	3.5749
3.9067	3.5904
3.9037	3.5990
3.9008	3.5925
3.8979	3.5756
3.8949	3.5896
3.8920	3.6005
3.8891	3.5766
3.8862	3.5810
3.8833	3.5922
3.8804	3.5911
3.8775	3.6080
3.8746	3.5946
3.8717	3.6037
3.8688	3.6145
3.8659	3.6103
3.8630	3.5981
3.8601	3.5932
3.8573	3.5990
3.8544	3.5932
3.8515	3.5960
3.8487	3.6054
3.8458	3.6063
3.8430	3.6002
3.8401	3.5960
3.8373	3.5820
3.8344	3.5754
3.8316	3.5916
3.8288	3.6047
3.8259	3.6103
3.8231	3.6052
3.8203	3.5993
3.8175	3.5876
3.8147	3.5824
3.8119	3.5719
3.8091	3.5880
3.8063	3.6094
3.8035	3.5964
3.8007	3.5749
3.7979	3.5700
3.7951	3.5686
3.7924	3.5880
3.7896	3.5984
3.7868	3.5896
3.7841	3.5883
3.7813	3.5843
3.7785	3.5714
3.7758	3.5855
3.7730	3.5990
3.7703	3.5841
3.7676	3.5779
3.7648	3.5935
3.7621	3.5843
3.7594	3.5803
3.7566	3.5956
3.7539	3.5917
3.7512	3.5794
3.7485	3.5904
3.7458	3.5958
3.7431	3.5510
3.7404	3.5489
3.7377	3.5894
3.7350	3.5956
3.7323	3.5813
3.7296	3.5974
3.7269	3.6073
3.7242	3.5824
3.7216	3.5688
3.7189	3.5700
3.7162	3.5681
3.7136	3.5730
3.7109	3.5885
3.7083	3.5941
3.7056	3.6073
3.7030	3.5824
3.7003	3.5754
3.6977	3.5857
3.6950	3.5644
3.6924	3.5686
3.6898	3.5958
3.6872	3.6063
3.6845	3.5880
3.6819	3.5636
3.6793	3.5433
3.6767	3.5346
3.6741	3.5580
3.6715	3.5670
3.6689	3.5712
3.6663	3.5796
3.6637	3.5808
3.6611	3.5779
3.6585	3.5843
3.6560	3.5688
3.6534	3.5657
3.6508	3.5899
3.6482	3.5979
3.6457	3.5707
3.6431	3.5538
3.6406	3.5553
3.6380	3.5556
3.6355	3.5728
3.6329	3.5655
3.6304	3.5602
3.6278	3.5691
3.6253	3.5597
3.6227	3.5421
3.6202	3.5574
3.6177	3.5683
3.6152	3.5595
3.6127	3.5423
3.6101	3.5374
3.6076	3.5390
3.6051	3.5559
3.6026	3.5602
3.6001	3.5543
3.5976	3.5337
3.5951	3.5163
3.5926	3.5262
3.5901	3.5374
3.5876	3.5397
3.5852	3.5184
3.5827	3.5107
3.5802	3.5236
3.5777	3.5381
3.5753	3.5325
3.5728	3.5098
3.5704	3.5330
3.5679	3.5548
3.5654	3.5412
3.5630	3.5384
3.5605	3.5205
3.5581	3.5067
3.5557	3.5135
3.5532	3.5296
3.5508	3.5163
3.5484	3.5046
3.5459	3.5172
3.5435	3.5070
3.5411	3.4992
3.5387	3.4891
3.5363	3.4877
3.5338	3.4953
3.5314	3.5032
3.5290	3.4936
3.5266	3.4959
3.5242	3.5067
3.5218	3.5067
3.5195	3.4781
3.5171	3.4507
3.5147	3.4460
3.5123	3.4338
3.5099	3.4137
3.5075	3.4034
3.5052	3.3928
3.5028	3.3928
3.5004	3.3982
3.4981	3.4078
3.4957	3.4239
3.4934	3.4120
3.4910	3.3972
3.4887	3.4020
3.4863	3.4106
3.4840	3.4158
3.4816	3.4106
3.4793	3.4034
3.4770	3.4120
3.4746	3.4179
3.4723	3.4120
3.4700	3.4275
3.4677	3.4353
3.4653	3.4218
3.4630	3.4130
3.4607	3.4125
3.4584	3.4094
3.4561	3.3971
3.4538	3.4104
3.4515	3.4282
3.4492	3.4132
3.4469	3.4141
3.4446	3.4291
3.4423	3.4236
3.4400	3.3925
3.4378	3.3825
3.4355	3.3855
3.4332	3.3602
3.4309	3.3363
3.4287	3.3394
3.4264	3.3569
3.4241	3.3260
3.4219	3.2693
3.4196	3.2553
3.4174	3.2867
3.4151	3.2981
3.4129	3.3075
3.4106	3.3218
3.4084	3.3239
3.4061	3.3206
3.4039	3.3208
3.4017	3.3358
3.3994	3.3325
3.3972	3.3255
3.3950	3.3068
3.3928	3.3042
3.3906	3.3117
3.3883	3.3190
3.3861	3.3156
3.3839	3.2941
3.3817	3.3057
3.3795	3.3208
3.3773	3.3257
3.3751	3.3195
3.3729	3.3110
3.3707	3.3054
3.3685	3.2914
3.3663	3.2948
3.3641	3.3260
3.3620	3.3372
3.3598	3.3325
3.3576	3.3218
3.3554	3.3400
3.3533	3.3530
3.3511	3.3304
3.3489	3.3161
3.3468	3.3082
3.3446	3.3239
3.3425	3.3588
3.3403	3.3403
3.3382	3.3086
3.3360	3.2935
3.3339	3.3002
3.3317	3.3096
3.3296	3.3371
3.3274	3.3710
3.3253	3.3724
3.3232	3.3431
3.3210	3.3366
3.3189	3.3187
3.3168	3.3031
3.3147	3.3208
3.3126	3.3312
3.3104	3.3096
3.3083	3.3028
3.3062	3.2946
3.3041	3.2745
3.3020	3.2599
3.2999	3.2660
3.2978	3.2798
3.2957	3.2911
3.2936	3.2754
3.2915	3.2592
3.2894	3.2742
3.2874	3.2824
3.2853	3.2810
3.2832	3.2556
3.2811	3.2527
3.2790	3.2510
3.2770	3.2124
3.2749	3.2314
3.2728	3.2847
3.2708	3.2864
3.2687	3.2784
3.2666	3.2439
3.2646	3.2388
3.2625	3.2301
3.2605	3.2133
3.2584	3.1976
3.2564	3.2060
3.2543	3.2379
3.2523	3.2553
3.2503	3.2437
3.2482	3.2452
3.2462	3.2590
3.2442	3.2418
3.2421	3.2325
3.2401	3.2013
3.2381	3.2020
3.2361	3.2238
3.2340	3.2234
3.2320	3.2236
3.2300	3.1971
3.2280	3.1509
3.2260	3.1701
3.2240	3.2147
3.2220	3.2096
3.2200	3.1696
3.2180	3.1579
3.2160	3.1596
3.2140	3.1439
3.2120	3.1613
3.2100	3.1453
3.2080	3.1319
3.2060	3.1542
3.2040	3.1685
3.2021	3.1457
3.2001	3.1444
3.1981	3.1533
3.1961	3.1512
3.1942	3.1512
3.1922	3.1575
3.1902	3.1472
3.1883	3.1212
3.1863	3.1336
3.1844	3.1359
3.1824	3.1163
3.1805	3.1280
3.1785	3.1402
3.1766	3.1355
3.1746	3.1169
3.1727	3.1043
3.1707	3.1050
3.1688	3.0977
3.1669	3.0851
3.1649	3.0975
3.1630	3.0996
3.1611	3.0660
3.1591	3.0691
3.1572	3.1036
3.1553	3.0949
3.1534	3.0982
3.1515	3.0806
3.1495	3.0473
3.1476	3.0710
3.1457	3.0886
3.1438	3.0902
3.1419	3.0668
3.1400	3.0459
3.1381	3.0492
3.1362	3.0600
3.1343	3.0468
3.1324	3.0340
3.1305	3.0145
3.1286	3.0060
3.1268	3.0351
3.1249	3.0372
3.1230	3.0047
3.1211	2.9930
3.1192	3.0110
3.1174	3.0199
3.1155	2.9956
3.1136	3.0036
3.1117	2.9892
3.1099	2.9922
3.1080	2.9984
3.1061	3.0012
3.1043	2.9948
3.1024	2.9836
3.1006	2.9681
3.0987	2.9702
3.0969	3.0068
3.0950	3.0033
3.0932	3.0047
3.0913	2.9930
3.0895	2.9829
3.0876	2.9953
3.0858	2.9901
3.0840	2.9777
3.0821	2.9662
3.0803	2.9683
3.0785	2.9452
3.0766	2.9322
3.0748	2.9595
3.0730	2.9817
3.0712	2.9927
3.0694	2.9857
3.0675	2.9817
3.0657	2.9772
3.0639	2.9641
3.0621	2.9719
3.0603	2.9510
3.0585	2.9156
3.0567	2.9192
3.0549	2.9187
3.0531	2.9271
3.0513	2.9363
3.0495	2.9489
3.0477	2.9686
3.0459	2.9632
3.0441	2.9133
3.0423	2.9151
3.0406	2.9496
3.0388	2.9421
3.0370	2.9213
3.0352	2.9262
3.0334	2.9372
3.0317	2.9414
3.0299	2.9367
3.0281	2.9337
3.0264	2.9325
3.0246	2.9192
3.0228	2.8810
3.0211	2.9096
3.0193	2.9325
3.0176	2.9096
3.0158	2.9221
3.0140	2.9294
3.0123	2.9083
3.0105	2.9341
3.0088	2.9360
3.0070	2.8889
3.0053	2.8793
3.0036	2.9039
3.0018	2.9078
3.0001	2.9140
2.9984	2.9252
2.9966	2.9187
2.9949	2.8961
2.9932	2.8793
2.9914	2.8717
2.9897	2.8786
2.9880	2.8969
2.9863	2.9020
2.9845	2.8922
2.9828	2.8919
2.9811	2.9025
2.9794	2.8868
2.9777	2.8987
2.9760	2.8821
2.9743	2.9226
2.9726	2.9363
2.9709	2.9339
2.9692	2.9264
2.9675	2.9442
2.9658	2.9177
2.9641	2.8985
2.9624	2.9049
2.9607	2.9210
2.9590	2.9414
2.9573	2.8839
2.9556	2.8575
2.9539	2.8990
2.9523	2.9057
2.9506	2.8966
2.9489	2.8886
2.9472	2.9192
2.9455	2.9224
2.9439	2.8978
2.9422	2.9006
2.9405	2.8980
2.9389	2.9301
2.9372	2.9226
2.9355	2.8868
2.9339	2.8891
2.9322	2.9013
2.9306	2.9076
2.9289	2.9182
2.9272	2.9145
2.9256	2.9046
2.9239	2.8868
2.9223	2.8667
2.9207	2.8680
2.9190	2.8889
2.9174	2.9011
2.9157	2.8999
2.9141	2.8818
2.9124	2.8641
2.9108	2.8739
2.9092	2.8717
2.9075	2.8955
2.9059	2.9088
2.9043	2.9283
2.9027	2.9444
2.9010	2.8919
2.8994	2.8746
2.8978	2.8964
2.8962	2.8997
2.8946	2.8847
2.8929	2.9175
2.8913	2.9426
2.8897	2.9210
2.8881	2.9145
2.8865	2.9034
2.8849	2.8906
2.8833	2.9317
2.8817	2.9540
2.8801	2.9168
2.8785	2.9096
2.8769	2.9145
2.8753	2.8969
2.8737	2.9158
2.8721	2.8976
2.8705	2.8860
2.8689	2.9100
2.8673	2.9496
2.8658	2.9555
2.8642	2.9112
2.8626	2.9236
2.8610	2.9348
2.8594	2.9037
2.8579	2.9309
2.8563	2.9655
2.8547	2.9768
2.8531	2.9238
2.8516	2.8865
2.8500	2.8859
2.8484	2.9039
2.8469	2.9055
2.8453	2.9051
2.8437	2.9081
2.8422	2.8739
2.8406	2.8743
2.8391	2.9055
2.8375	2.9372
2.8360	2.9491
2.8344	2.9351
2.8329	2.9271
2.8313	2.9168
2.8298	2.9147
2.8282	2.9330
2.8267	2.9117
2.8252	2.9221
2.8236	2.9423
2.8221	2.9325
2.8205	2.9264
2.8190	2.9608
2.8175	2.9553
2.8159	2.9381
2.8144	2.9400
2.8129	2.9608
2.8114	2.9620
2.8098	2.9339
2.8083	2.9341
2.8068	2.9301
2.8053	2.8741
2.8038	2.8908
2.8022	2.9348
2.8007	2.9200
2.7992	2.8953
2.7977	2.9236
2.7962	2.9241
2.7947	2.9140
2.7932	2.9325
2.7917	2.9367
2.7902	2.9020
2.7887	2.9109
2.7872	2.9072
2.7857	2.8961
2.7842	2.9301
2.7827	2.9494
2.7812	2.9449
2.7797	2.9221
2.7782	2.9098
2.7767	2.9109
2.7752	2.9037
2.7738	2.8865
2.7723	2.9205
2.7708	2.9428
2.7693	2.9386
2.7678	2.9125
2.7664	2.9070
2.7649	2.9194
2.7634	2.9351
2.7619	2.9311
2.7605	2.9198
2.7590	2.8882
2.7575	2.8690
2.7561	2.8880
2.7546	2.9482
2.7531	2.9616
2.7517	2.9245
2.7502	2.9585
2.7488	2.9655
2.7473	2.9163
2.7458	2.9372
2.7444	2.9871
2.7429	2.9995
2.7415	2.9754
2.7400	2.9470
2.7386	2.9766
2.7371	3.0278
2.7357	3.0321
2.7343	3.0059
2.7328	3.0192
2.7314	3.0457
2.7299	3.0588
2.7285	3.0371
2.7271	3.0532
2.7256	3.1122
2.7242	3.1221
2.7228	3.1146
2.7213	3.1156
2.7199	3.1280
2.7185	3.1662
2.7171	3.2060
2.7156	3.2730
2.7142	3.3286
2.7128	3.3572
2.7114	3.3875
2.7100	3.3902
2.7085	3.3968
2.7071	3.4378
2.7057	3.4624
2.7043	3.4483
2.7029	3.4551
2.7015	3.4779
2.7001	3.5346
2.6987	3.5777
2.6973	3.5688
2.6959	3.5800
2.6945	3.6098
2.6931	3.6016
2.6917	3.6065
2.6903	3.6155
2.6889	3.6564
2.6875	3.6597
2.6861	3.6216
2.6847	3.6517
2.6833	3.6677
2.6819	3.6426
2.6805	3.6560
2.6791	3.6680
2.6778	3.6321
2.6764	3.6610
2.6750	3.7101
2.6736	3.6694
2.6722	3.6438
2.6709	3.6408
2.6695	3.6517
2.6681	3.6623
2.6667	3.6358
2.6654	3.6478
2.6640	3.6675
2.6626	3.6431
2.6613	3.6218
2.6599	3.6345
2.6585	3.6956
2.6572	3.6914
2.6558	3.6785
2.6545	3.6853
2.6531	3.6841
2.6517	3.6808
2.6504	3.6787
2.6490	3.7216
2.6477	3.7176
2.6463	3.6476
2.6450	3.6841
2.6436	3.6984
2.6423	3.6717
2.6409	3.6860
2.6396	3.7231
2.6382	3.7524
2.6369	3.6984
2.6356	3.6527
2.6342	3.7120
2.6329	3.7514
2.6315	3.7143
2.6302	3.7092
2.6289	3.6870
2.6275	3.6750
2.6262	3.6774
2.6249	3.6623
2.6236	3.6590
2.6222	3.6680
2.6209	3.6706
2.6196	3.6790
2.6183	3.6748
2.6169	3.6330
2.6156	3.6443
2.6143	3.6701
2.6130	3.6321
2.6117	3.6333
2.6103	3.6633
2.6090	3.6576
2.6077	3.6647
2.6064	3.6846
2.6051	3.6426
2.6038	3.6124
2.6025	3.6436
2.6012	3.6855
2.5999	3.7008
2.5986	3.6787
2.5973	3.6375
2.5960	3.6075
2.5947	3.6281
2.5934	3.6490
2.5921	3.6488
2.5908	3.6394
2.5895	3.6304
2.5882	3.6361
2.5869	3.6014
2.5856	3.6366
2.5843	3.7036
2.5830	3.6966
2.5817	3.6535
2.5805	3.6483
2.5792	3.6569
2.5779	3.6574
2.5766	3.6563
2.5753	3.6054
2.5741	3.5735
2.5728	3.5935
2.5715	3.6441
2.5702	3.6476
2.5690	3.6408
2.5677	3.6347
2.5664	3.6127
2.5651	3.5864
2.5639	3.5800
2.5626	3.6014
2.5613	3.5964
2.5601	3.5683
2.5588	3.5782
2.5575	3.6033
2.5563	3.6039
2.5550	3.6110
2.5538	3.6408
2.5525	3.6174
2.5513	3.5775
2.5500	3.5660
2.5487	3.6091
2.5475	3.6195
2.5462	3.6129
2.5450	3.6265
2.5437	3.6091
2.5425	3.5805
2.5413	3.5632
2.5400	3.5356
2.5388	3.5463
2.5375	3.5613
2.5363	3.5763
2.5350	3.5768
2.5338	3.5749
2.5326	3.5439
2.5313	3.5325
2.5301	3.5436
2.5289	3.5725
2.5276	3.5876
2.5264	3.5564
2.5252	3.5538
2.5239	3.5761
2.5227	3.5604
2.5215	3.5808
2.5202	3.5993
2.5190	3.5304
2.5178	3.4886
2.5166	3.4894
2.5154	3.5252
2.5141	3.5442
2.5129	3.5437
2.5117	3.5498
2.5105	3.5704
2.5093	3.5540
2.5081	3.5498
2.5068	3.5341
2.5056	3.5363
2.5044	3.5639
2.5032	3.5447
2.5020	3.5592
2.5008	3.5813
2.4996	3.5821
2.4984	3.5798
2.4972	3.5290
2.4960	3.5171
2.4948	3.5363
2.4936	3.5784
2.4924	3.6075
2.4912	3.5454
2.4900	3.5055
2.4888	3.5086
2.4876	3.5437
2.4864	3.5506
2.4852	3.5133
2.4840	3.5210
2.4828	3.5194
2.4816	3.5168
2.4805	3.5114
2.4793	3.5194
2.4781	3.5273
2.4769	3.4959
2.4757	3.5083
2.4745	3.5243
2.4734	3.5119
2.4722	3.4943
2.4710	3.5100
2.4698	3.5981
2.4686	3.5990
2.4675	3.5236
2.4663	3.5698
2.4651	3.6056
2.4640	3.5590
2.4628	3.5536
2.4616	3.5367
2.4604	3.4380
2.4593	3.4259
2.4581	3.5301
2.4569	3.5662
2.4558	3.5553
2.4546	3.5220
2.4535	3.5316
2.4523	3.5147
2.4511	3.5104
2.4500	3.5268
2.4488	3.5091
2.4477	3.5590
2.4465	3.5527
2.4454	3.4629
2.4442	3.4475
2.4431	3.4826
2.4419	3.5234
2.4408	3.5449
2.4396	3.5100
2.4385	3.4859
2.4373	3.5046
2.4362	3.5171
2.4350	3.4956
2.4339	3.4525
2.4327	3.4760
2.4316	3.5215
2.4305	3.5283
2.4293	3.5016
2.4282	3.5083
2.4270	3.5194
2.4259	3.5076
2.4248	3.4545
2.4236	3.4263
2.4225	3.4985
2.4214	3.5578
2.4202	3.5078
2.4191	3.4793
2.4180	3.4857
2.4169	3.4629
2.4157	3.4940
2.4146	3.5081
2.4135	3.4842
2.4124	3.4735
2.4112	3.4478
2.4101	3.4563
2.4090	3.4784
2.4079	3.5004
2.4068	3.4922
2.4056	3.5055
2.4045	3.5154
2.4034	3.4706
2.4023	3.4673
2.4012	3.4659
2.4001	3.4524
2.3990	3.5147
2.3979	3.5166
2.3967	3.4408
2.3956	3.4336
2.3945	3.4270
2.3934	3.4655
2.3923	3.4849
2.3912	3.4605
2.3901	3.4306
2.3890	3.4231
2.3879	3.4545
2.3868	3.4938
2.3857	3.5341
2.3846	3.5072
2.3835	3.4781
2.3824	3.5247
2.3813	3.5125
2.3802	3.4631
2.3791	3.4504
2.3781	3.4418
2.3770	3.4722
2.3759	3.4797
2.3748	3.4812
2.3737	3.4680
2.3726	3.4476
2.3715	3.4549
2.3704	3.4743
2.3694	3.4906
2.3683	3.4756
2.3672	3.4753
2.3661	3.5086
2.3650	3.5006
2.3640	3.4889
2.3629	3.5121
2.3618	3.4504
2.3607	3.3778
2.3597	3.4507
2.3586	3.5041
2.3575	3.4621
2.3564	3.4444
2.3554	3.4294
2.3543	3.3813
2.3532	3.4475
2.3522	3.5369
2.3511	3.5364
2.3500	3.4999
2.3490	3.4371
2.3479	3.4336
2.3468	3.4735
2.3458	3.4945
2.3447	3.4969
2.3436	3.4498
2.3426	3.4231
2.3415	3.4696
2.3405	3.4598
2.3394	3.4029
2.3384	3.4116
2.3373	3.4382
2.3363	3.4397
2.3352	3.4608
2.3342	3.4816
2.3331	3.4647
2.3321	3.4380
2.3310	3.4533
2.3300	3.4950
2.3289	3.4399
2.3279	3.3813
2.3268	3.4068
2.3258	3.4584
2.3247	3.4764
2.3237	3.4451
2.3226	3.4141
2.3216	3.4301
2.3206	3.4624
2.3195	3.4575
2.3185	3.4397
2.3175	3.4512
2.3164	3.4894
2.3154	3.4455
2.3144	3.3675
2.3133	3.4034
2.3123	3.4650
2.3113	3.4200
2.3102	3.3844
2.3092	3.3677
2.3082	3.3844
2.3071	3.3996
2.3061	3.3912
2.3051	3.3644
2.3041	3.4226
2.3030	3.4596
2.3020	3.4336
2.3010	3.4043
2.3000	3.3994
2.2990	3.4327
2.2979	3.4420
2.2969	3.4137
2.2959	3.3977
2.2949	3.3813
2.2939	3.4378
2.2929	3.4748
2.2918	3.4641
2.2908	3.4504
2.2898	3.4397
2.2888	3.4366
2.2878	3.4148
2.2868	3.4179
2.2858	3.4432
2.2848	3.4329
2.2838	3.4356
2.2828	3.4870
2.2818	3.4758
2.2808	3.4127
2.2798	3.4336
2.2787	3.4478
2.2777	3.4329
2.2767	3.4493
2.2757	3.4615
2.2747	3.4662
2.2738	3.4662
2.2728	3.4117
2.2718	3.3949
2.2708	3.4641
2.2698	3.4828
2.2688	3.4592
2.2678	3.4735
2.2668	3.4836
2.2658	3.4521
2.2648	3.4413
2.2638	3.4915
2.2628	3.5259
2.2618	3.4781
2.2609	3.4579
2.2599	3.4603
2.2589	3.4730
2.2579	3.4457
2.2569	3.4282
2.2559	3.4408
2.2550	3.4530
2.2540	3.4432
2.2530	3.4704
2.2520	3.4814
2.2510	3.4425
2.2501	3.3987
2.2491	3.4005
2.2481	3.4385
2.2471	3.4244
2.2462	3.4221
2.2452	3.4340
2.2442	3.4392
2.2433	3.4413
2.2423	3.4549
2.2413	3.4769
2.2403	3.4805
2.2394	3.4714
2.2384	3.4727
2.2374	3.4554
2.2365	3.4818
2.2355	3.5032
2.2345	3.4312
2.2336	3.4514
2.2326	3.4781
2.2317	3.4638
2.2307	3.4202
2.2297	3.4329
2.2288	3.5273
2.2278	3.5280
2.2269	3.5135
2.2259	3.5046
2.2250	3.4812
2.2240	3.4756
2.2231	3.4382
2.2221	3.4200
2.2211	3.4823
2.2202	3.4854
2.2192	3.4387
2.2183	3.4382
2.2173	3.4784
2.2164	3.4948
2.2155	3.5215
2.2145	3.5317
2.2136	3.4870
2.2126	3.4772
2.2117	3.4483
2.2107	3.4402
2.2098	3.4390
2.2088	3.5051
2.2079	3.5480
2.2070	3.4999
2.2060	3.4959
2.2051	3.4953
2.2041	3.4434
2.2032	3.4425
2.2023	3.5088
2.2013	3.4997
2.2004	3.4741
2.1995	3.5147
2.1985	3.5114
2.1976	3.5102
2.1967	3.4767
2.1957	3.4894
2.1948	3.5172
2.1939	3.5257
2.1930	3.5151
2.1920	3.4969
2.1911	3.5004
2.1902	3.4746
2.1893	3.4667
2.1883	3.5039
2.1874	3.5114
2.1865	3.4987
2.1856	3.4374
2.1846	3.4174
2.1837	3.4621
2.1828	3.5316
2.1819	3.5529
2.1810	3.4863
2.1800	3.4903
2.1791	3.5076
2.1782	3.4826
2.1773	3.4512
2.1764	3.4509
2.1755	3.4423
2.1746	3.4657
2.1736	3.4985
2.1727	3.5135
2.1718	3.5540
2.1709	3.5428
2.1700	3.5623
2.1691	3.5386
2.1682	3.4603
2.1673	3.4195
2.1664	3.4737
2.1655	3.5815
2.1646	3.5951
2.1637	3.5283
2.1628	3.5151
2.1619	3.5363
2.1610	3.5501
2.1601	3.5611
2.1592	3.5075
2.1583	3.5140
2.1574	3.4884
2.1565	3.4566
2.1556	3.5304
2.1547	3.5311
2.1538	3.5032
2.1529	3.5171
2.1520	3.4800
2.1511	3.4836
2.1502	3.5463
2.1493	3.5075
2.1484	3.4956
2.1475	3.5548
2.1466	3.5137
2.1458	3.4725
2.1449	3.4884
2.1440	3.5522
2.1431	3.5641
2.1422	3.5559
2.1413	3.5766
2.1404	3.5590
2.1396	3.5486
2.1387	3.5829
2.1378	3.5590
2.1369	3.5353
2.1360	3.5548
2.1352	3.5109
2.1343	3.4857
2.1334	3.5332
2.1325	3.5735
2.1316	3.6023
2.1308	3.6180
2.1299	3.5616
2.1290	3.5072
2.1281	3.5421
2.1273	3.5454
2.1264	3.5522
2.1255	3.5719
2.1247	3.5341
2.1238	3.5611
2.1229	3.6169
2.1220	3.6213
2.1212	3.5920
2.1203	3.5892
2.1194	3.5916
2.1186	3.5410
2.1177	3.5168
2.1168	3.5381
2.1160	3.5771
2.1151	3.5803
2.1143	3.6132
2.1134	3.6330
2.1125	3.5548
2.1117	3.5051
2.1108	3.5559
2.1100	3.5798
2.1091	3.5909
2.1082	3.6117
2.1074	3.6410
2.1065	3.5503
2.1057	3.4535
2.1048	3.4906
2.1040	3.5553
2.1031	3.5749
2.1023	3.6445
2.1014	3.6262
2.1005	3.5763
2.0997	3.6031
2.0988	3.6324
2.0980	3.6070
2.0971	3.5904
2.0963	3.6133
2.0955	3.6010
2.0946	3.5667
2.0938	3.6133
2.0929	3.6101
2.0921	3.6174
2.0912	3.6368
2.0904	3.6745
2.0895	3.6342
2.0887	3.6143
2.0879	3.5855
2.0870	3.5941
2.0862	3.6244
2.0853	3.6127
2.0845	3.6283
2.0837	3.6488
2.0828	3.6358
2.0820	3.5963
2.0812	3.6010
2.0803	3.6537
2.0795	3.6727
2.0760	3.6359
2.0720	3.6683
2.0680	3.6653
2.0640	3.6339
2.0600	3.6711
2.0560	3.6541
2.0520	3.6486
2.0480	3.7077
2.0440	3.5774
2.0400	3.7727
2.0360	3.6450
2.0320	3.7536
2.0280	3.7019
2.0240	3.7025
2.0200	3.7153
2.0160	3.6867
2.0120	3.6846
2.0080	3.6888
2.0040	3.6898
2.0000	3.7277
1.9960	3.7267
1.9920	3.7615
1.9880	3.6770
1.9840	3.7459
1.9800	3.8119
1.9760	3.8219
1.9720	3.6982
1.9680	3.8022
1.9640	3.7377
1.9600	3.7089
1.9560	3.7668
1.9520	3.7373
1.9480	3.7064
1.9440	3.7435
1.9400	3.7421
1.9360	3.7690
1.9320	3.7823
1.9280	3.7179
1.9240	3.8183
1.9200	3.7190
1.9160	3.7267
1.9120	3.7442
1.9080	3.7128
1.9040	3.8161
1.9000	3.8459
1.8960	3.8357
1.8920	3.8040
1.8880	3.8741
1.8840	3.8073
1.8800	3.8741
1.8760	3.8798
1.8720	3.9451
1.8680	3.9095
1.8640	3.9002
1.8600	3.8516
1.8560	3.8821
1.8520	3.8499
1.8480	3.9268
1.8440	3.9008
1.8400	3.9361
1.8360	3.9361
1.8320	3.8663
1.8280	3.8600
1.8240	3.8827
1.8200	3.8567
1.8160	3.8860
1.8120	3.8866
1.8080	4.0425
1.8040	3.9860
1.8000	4.0277
1.7960	3.9676
1.7920	3.9584
1.7880	3.9813
1.7840	3.9936
1.7800	3.9723
1.7760	4.0696
1.7720	3.9373
1.7680	4.0089
1.7640	3.9872
1.7600	3.9286
1.7560	3.9560
1.7520	3.9047
1.7480	3.9377
1.7440	3.9630
1.7400	3.9896
1.7360	3.9995
1.7320	3.9115
1.7280	4.0244
1.7240	4.0279
1.7200	3.9743
1.7160	4.0365
1.7120	4.0133
1.7080	4.0086
1.7040	3.9520
1.7000	3.9992
1.6960	4.0368
1.6920	4.0490
1.6880	3.9646
1.6840	4.0337
1.6800	3.9600
1.6760	4.0739
1.6720	4.0537
1.6680	4.0849
1.6640	4.0859
1.6600	4.0799
1.6560	4.0799
1.6520	3.9727
1.6480	4.0691
1.6440	4.0487
1.6400	3.9831
1.6360	4.0108
1.6320	4.0440
1.6280	4.0050
1.6240	4.0213
1.6200	4.0478
1.6160	4.0431
1.6120	4.0632
1.6080	4.0042
1.6040	4.0714
1.6000	4.0668
1.5960	4.0883
1.5920	4.0683
1.5880	4.1076
1.5840	4.0568
1.5800	4.1185
1.5760	4.1739
1.5720	4.0461
1.5680	4.1030
1.5640	4.1305
1.5600	4.0991
1.5560	4.0835
1.5520	4.0931
1.5480	4.1270
1.5440	4.1173
1.5400	4.1826
1.5360	4.1221
1.5320	4.0474
1.5280	4.0485
1.5240	4.0871
1.5200	4.0705
1.5160	4.1307
1.5120	4.1414
1.5080	4.0252
1.5040	3.9676
1.5000	4.0358
1.4960	4.0827
1.4920	4.0687
1.4880	4.0904
1.4840	4.1515
1.4800	4.0862
1.4760	4.0829
1.4720	4.1206
1.4680	4.1267
1.4640	4.1206
1.4600	4.0853
1.4560	4.1792
1.4520	4.1424
1.4480	4.1368
1.4440	4.1098
1.4400	4.1853
1.4360	4.1533
1.4320	4.1874
1.4280	4.1448
1.4240	4.1821
1.4200	4.0625
1.4160	4.0976
1.4120	3.9981
1.4080	4.1035
1.4040	4.0964
1.4000	4.0752
1.3960	4.1224
1.3920	4.1642
1.3880	4.1036
1.3840	4.0969
1.3800	4.1148
1.3760	4.0984
1.3720	4.1075
1.3680	4.0985
1.3640	4.0740
1.3600	4.1680
1.3560	4.0486
1.3520	4.0910
1.3480	4.2025
1.3440	4.1952
1.3400	4.2097
1.3360	4.2045
1.3320	4.1397
1.3280	4.2714
1.3240	4.2786
1.3200	4.2355
1.3160	4.0055
1.3120	4.1800
1.3080	4.2486
1.3040	4.2475
1.3000	4.0427
1.2960	4.1863
1.2920	4.1898
1.2880	4.2355
1.2840	4.0735
1.2800	4.0244
1.2760	4.1826
1.2720	4.1439
1.2680	4.1040
1.2640	4.0404
1.2600	4.1577
1.2560	4.0524
1.2520	4.0754
1.2480	3.9909
1.2440	4.0703
1.2400	4.0720
1.2360	4.0776
1.2320	4.0857
1.2280	4.1496
1.2240	4.1190
1.2200	4.1308
1.2160	4.0418
1.2120	4.0689
1.2080	4.0654
1.2040	4.0568
1.2000	4.0558
1.1960	4.0482
1.1920	4.0430
1.1880	4.0027
1.1840	4.0356
1.1800	4.1361
1.1760	4.0256
1.1720	4.0625
1.1680	4.0995
1.1640	4.0329
1.1600	4.0750
1.1560	4.1226
1.1520	4.0283
1.1480	4.0417
1.1440	4.0839
1.1400	4.0652
1.1360	3.9717
1.1320	3.9164
1.1280	3.9852
1.1240	4.0281
1.1200	3.9609
1.1160	3.9777
1.1120	3.9707
1.1080	3.9330
1.1040	3.8668
1.1000	3.8252
1.0960	3.9875
1.0920	3.9075
1.0880	3.9094
1.0840	3.9718
1.0800	3.9738
1.0760	3.8512
1.0720	3.8264
1.0680	3.8272
1.0640	3.7754
1.0600	3.8890
1.0560	3.7931
1.0520	3.8687
1.0480	3.7984
1.0440	3.9019
1.0400	3.9455
1.0360	3.7330
1.0320	3.7402
1.0280	3.6993
1.0240	3.8055
1.0200	3.6951
1.0160	3.7306
1.0120	3.8198
1.0080	3.7804
1.0040	3.6250
1.0000	3.7700
0.9960	3.7289
0.9920	3.7177
0.9880	3.6783
0.9840	3.7700
0.9800	3.7137
0.9760	3.7874
0.9720	3.5991
0.9680	3.6743
0.9640	3.6365
0.9600	3.7484
0.9560	3.7826
0.9520	3.9012
0.9480	3.9349
0.9440	3.8943
0.9400	3.7848
0.9360	3.8211
0.9320	3.9630
0.9280	3.9646
0.9240	4.0032
0.9200	3.9668
0.9160	4.0455
0.9120	4.0771
0.9080	4.0022
0.9040	4.0415
0.9000	4.0789
0.8960	4.1561
0.8920	4.1327
0.8880	4.1671
0.8840	4.1681
0.8800	4.1778
0.8760	4.1859
0.8720	4.1517
0.8680	4.2804
0.8640	4.3944
0.8600	4.2964
0.8560	4.3763
0.8520	4.3021
0.8480	4.4278
0.8440	4.4377
0.8400	4.5086
0.8360	4.4714
0.8320	4.5562
0.8280	4.5137
0.8240	4.5963
0.8200	4.6118
0.8160	4.5898
0.8120	4.5575
0.8080	4.6569
0.8040	4.5291
0.8000	4.6424
0.7990	4.6034
0.7980	4.6071
0.7970	4.4417
0.7960	4.4915
0.7950	4.5885
0.7940	4.5978
0.7930	4.4712
0.7920	4.6484
0.7910	4.3513
0.7900	4.4272
0.7890	4.3481
0.7880	4.5806
0.7870	4.6858
0.7860	4.5990
0.7850	4.6251
0.7840	4.3725
0.7830	4.5366
0.7820	4.5634
0.7810	4.5748
0.7800	4.4272
0.7790	4.3095
0.7780	4.5314
0.7770	4.3694
0.7760	4.6463
0.7750	4.4754
0.7740	4.4530
0.7730	4.5298
0.7720	4.6403
0.7710	4.6872
0.7700	4.6133
0.7690	4.6924
0.7680	4.6539
0.7670	4.5178
0.7660	4.6970
0.7650	4.7055
0.7640	4.7765
0.7630	4.5666
0.7620	4.6258
0.7610	4.7775
0.7600	4.3391
0.7590	4.4381
0.7580	4.2941
0.7570	4.5486
0.7560	4.4354
0.7550	4.4782
0.7540	4.5060
0.7530	4.4331
0.7520	4.4263
0.7510	4.5830
0.7500	4.5109
0.7490	4.6436
0.7480	4.5126
0.7470	4.5567
0.7460	4.3289
0.7450	4.4751
0.7440	4.3636
0.7430	4.5618
0.7420	4.6697
0.7410	4.6381
0.7400	4.5974
0.7390	4.6191
0.7380	4.3714
0.7370	4.3036
0.7360	4.5618
0.7350	4.3968
0.7340	4.7176
0.7330	4.5923
0.7320	4.4194
0.7310	4.6056
0.7300	4.5239
0.7290	4.5679
0.7280	4.2073
0.7270	4.4418
0.7260	4.5138
0.7250	4.4706
0.7240	4.5267
0.7230	4.6799
0.7220	4.5138
0.7210	4.4431
0.7200	4.3184
0.7190	4.1777
0.7180	4.6031
0.7170	4.5036
0.7160	4.4848
0.7150	4.4805
0.7140	4.6090
0.7130	4.4876
0.7120	4.5081
0.7110	4.4792
0.7100	4.4978
0.7090	4.6318
0.7080	4.2856
0.7070	4.3713
0.7060	4.5353
0.7050	4.3395
0.7040	4.5515
0.7030	4.4280
0.7020	4.5671
0.7010	4.4196
0.7000	4.2506
0.6990	4.4357
0.6980	4.3520
0.6970	4.5499
0.6960	4.6361
0.6950	4.5270
0.6940	4.4622
0.6930	4.4716
0.6920	4.3172
0.6910	4.4092
0.6900	4.3766
0.6890	4.2760
0.6880	4.5268
0.6870	4.4096
0.6860	4.4077
0.6850	4.5624
0.6840	4.4104
0.6830	4.5639
0.6820	4.6206
0.6810	4.5094
0.6800	4.5608
0.6790	4.4592
0.6780	4.2465
0.6770	4.4401
0.6760	4.4666
0.6750	4.3972
0.6740	4.3563
0.6730	4.2410
0.6720	4.2080
0.6710	4.4701
0.6700	4.4967
0.6690	4.5400
0.6680	4.3331
0.6670	4.3683
0.6660	4.3549
0.6650	4.1734
0.6640	4.4210
0.6630	4.2932
0.6620	4.2877
0.6610	4.5371
0.6600	4.2932
0.6590	4.3119
0.6580	4.3531
0.6570	4.4336
0.6560	4.3490
0.6550	4.4570
0.6540	4.3637
0.6530	4.3894
0.6520	4.2722
0.6510	4.4336
0.6500	4.4988
0.6490	4.4314
0.6480	4.2750
0.6470	4.3439
0.6460	4.4546
0.6450	4.4997
0.6440	4.6864
0.6430	4.2549
0.6420	4.4329
0.6410	4.4200
0.6400	4.3904
0.6390	4.3459
0.6380	4.2247
0.6370	4.3889
0.6360	4.2631
0.6350	4.3476
0.6340	4.5678
0.6330	4.2064
0.6320	4.3186
0.6310	4.2741
0.6300	4.5243
0.6290	4.2842
0.6280	4.2462
0.6270	4.4185
0.6260	4.3444
0.6250	4.4080
0.6240	4.4570
0.6230	4.3021
0.6220	4.4299
0.6210	4.2420
0.6200	4.4209
0.6190	4.4036
0.6180	4.2420
0.6170	4.5386
0.6160	4.4089
0.6150	4.5632
0.6140	4.3798
0.6130	4.3953
0.6120	4.3943
0.6110	4.3540
0.6100	4.3887
0.6090	4.4209
0.6080	4.4209
0.6070	4.1939
0.6060	4.4374
0.6050	4.4676
0.6040	4.2819
0.6030	4.2663
0.6020	4.3905
0.6010	4.2534
0.6000	4.1925
0.5990	4.2140
0.5980	4.2926
0.5970	4.3451
0.5960	4.4207
0.5950	4.2592
0.5940	4.2563
0.5930	4.5024
0.5920	4.4565
0.5910	4.4192
0.5900	4.2709
0.5890	4.3860
0.5880	4.1982
0.5870	4.1433
0.5860	4.4011
0.5850	4.5355
0.5840	4.4631
0.5830	4.5654
0.5820	4.3875
0.5810	4.2665
0.5800	4.2671
0.5790	4.2747
0.5780	4.3918
0.5770	4.3303
0.5760	4.2441
0.5750	4.3407
0.5740	4.3273
0.5730	4.3518
0.5720	4.1820
0.5710	4.3711
0.5700	4.2914
0.5690	4.3161
0.5680	4.3220
0.5670	4.4631
0.5660	4.1366
0.5650	4.2934
0.5640	4.3430
0.5630	4.3400
0.5620	4.3518
0.5610	4.3264
0.5600	4.4518
0.5590	4.2041
0.5580	4.2704
0.5570	4.3904
0.5560	4.2355
0.5550	4.1019
0.5540	4.3751
0.5530	4.3832
0.5520	4.3982
0.5510	4.2573
0.5500	4.3249
0.5490	4.0884
0.5480	4.1571
0.5470	4.2991
0.5460	4.3006
0.5450	4.2556
0.5440	4.3262
0.5430	4.2369
0.5420	4.3639
0.5410	4.4037
0.5400	4.2163
0.5390	4.1784
0.5380	4.2389
0.5370	4.2823
0.5360	4.2703
0.5350	4.2876
0.5340	4.3184
0.5330	4.3078
0.5320	4.3888
0.5310	4.2641
0.5300	4.1908
0.5290	4.2434
0.5280	4.2556
0.5270	4.3742
0.5260	4.1584
0.5250	4.4570
0.5240	4.3784
0.5230	4.2912
0.5220	4.1953
0.5210	4.3719
0.5200	4.2883
0.5190	4.2236
0.5180	4.3769
0.5170	4.3704
0.5160	4.1152
0.5150	4.2377
0.5140	4.1672
0.5130	4.1594
0.5120	4.2926
0.5110	4.0526
0.5100	4.0788
0.5090	4.2411
0.5080	4.1608
0.5070	4.3935
0.5060	4.2083
0.5050	4.0736
0.5040	3.9926
0.5030	4.3923
0.5020	4.0801
0.5010	4.1495
0.5000	4.2018
0.4990	4.2632
0.4980	4.2210
0.4970	4.3319
0.4960	4.2775
0.4950	4.0645
0.4940	4.1818
0.4930	4.0892
0.4920	4.0153
0.4910	3.8794
0.4900	3.8770
0.4890	4.1063
0.4880	4.2789
0.4870	4.3661
0.4860	4.1050
0.4850	4.0642
0.4840	3.9862
0.4830	3.7645
0.4820	4.2567
0.4810	4.2163
0.4800	3.9774
0.4790	4.0507
0.4780	3.9867
0.4770	3.9821
0.4760	4.1133
0.4750	4.1181
0.4740	4.0009
0.4730	4.0086
0.4720	3.9657
0.4710	4.0313
0.4700	4.1348
0.4690	4.1242
0.4680	3.9075
0.4670	4.2877
0.4660	4.2426
0.4650	4.1720
0.4640	4.1125
0.4630	4.1110
0.4620	3.7131
0.4610	4.0864
0.4600	4.0058
0.4590	4.1419
0.4580	3.9702
0.4570	3.8101
0.4560	3.6906
0.4550	3.6080
0.4540	3.8562
0.4530	3.9693
0.4520	3.9184
0.4510	4.2254
0.4500	3.8811
0.4490	3.7593
0.4480	4.1128
0.4470	3.9235
0.4460	3.8633
0.4450	3.8505
0.4440	3.7487
0.4430	3.8615
0.4420	3.8474
0.4410	3.8414
0.4400	3.6801
0.4390	3.5155
0.4380	3.4133
0.4370	3.5356
0.4360	3.7505
0.4350	3.3547
0.4340	3.5927
0.4330	3.5695
0.4320	3.6241
0.4310	3.6609
0.4300	3.4825
0.4290	3.7038
0.4280	3.4416
0.4270	3.3836
0.4260	3.3875
0.4250	3.3420
0.4240	3.4083
0.4230	3.2765
0.4220	3.5409
0.4210	3.3824
0.4200	3.4618
0.4190	3.6009
0.4180	3.1932
0.4170	3.2734
0.4160	3.3525
0.4150	3.0879
0.4140	3.1646
0.4130	3.4705
0.4120	3.3317
0.4110	3.4366
0.4100	3.5156
0.4090	3.6345
0.4080	3.2036
0.4070	3.4682
0.4060	3.0950
0.4050	3.1702
0.4040	2.9961
0.4030	2.9721
0.4020	3.0612
0.4010	3.2323
0.4000	3.0519

