Name: Granite
Type: Rocks
Class: Igneous
Subclass: Felsic
Particle Size: Solid
Sample No.: Granite.H2
Owner: JHU
Wavelength range: All
Origin: From Santa Rita Mountains, Arizona via Smithsonian (Cat. No. 
NMNH 113640-17)
Description: A gray, medium-grained rock consisting of white 
feldspar grains, some of which contain red or pinkish cores, quartz, and 
minor biotite. Some of the feldspar appears to be perthitic.



Measurement: Directional (10 degree) hemispherical reflectance
First Column: X
Second Column: Y
X Units: Wavelength (micrometers)
Y Units: Reflectance (percent)
First X Value: 14.0112
Last X Value: 0.4000
Number of X Values: 2844
Additional information: granit2a.txt

14.0112	5.9681
13.9734	5.5912
13.9359	5.5284
13.8985	6.8672
13.8614	7.4194
13.8244	7.6237
13.7876	7.2384
13.7511	6.2166
13.7147	5.8940
13.6785	5.6709
13.6425	4.9992
13.6067	4.3547
13.5711	4.3547
13.5356	3.4200
13.5004	3.0665
13.4653	3.4021
13.4304	3.7270
13.3957	4.0312
13.3612	4.3265
13.3269	4.7439
13.2927	4.9181
13.2587	4.8902
13.2249	4.7628
13.1912	4.9690
13.1577	5.6194
13.1244	5.9020
13.0913	5.9376
13.0583	6.1859
13.0255	6.3239
12.9929	6.5761
12.9604	6.7532
12.9281	6.8651
12.8959	7.2829
12.8639	7.8421
12.8321	8.1851
12.8004	8.1249
12.7688	7.9683
12.7375	7.6167
12.7063	6.9106
12.6752	6.1950
12.6443	5.6049
12.6135	5.5008
12.5829	5.8207
12.5524	6.3283
12.5221	6.7950
12.4919	7.0500
12.4619	6.8535
12.4320	6.2995
12.4023	5.6133
12.3727	4.6228
12.3432	3.6112
12.3139	3.1621
12.2847	3.0342
12.2557	2.9590
12.2268	3.0919
12.1980	3.2384
12.1694	3.4502
12.1409	3.5862
12.1125	3.6875
12.0843	3.8292
12.0562	3.9145
12.0282	3.9485
12.0003	3.9900
11.9726	4.1519
11.9450	4.3502
11.9176	4.4436
11.8903	4.3828
11.8631	4.4104
11.8360	4.5745
11.8090	4.7402
11.7822	4.8607
11.7555	4.9779
11.7289	5.0431
11.7024	5.0845
11.6760	5.2218
11.6498	5.3979
11.6237	5.5270
11.5977	5.6460
11.5718	5.7468
11.5460	5.8031
11.5203	5.9161
11.4948	6.0021
11.4694	6.0647
11.4440	6.1256
11.4188	6.2062
11.3937	6.2615
11.3688	6.2578
11.3439	6.3255
11.3191	6.4455
11.2944	6.5231
11.2699	6.5580
11.2455	6.5930
11.2211	6.6872
11.1969	6.7678
11.1727	6.8477
11.1487	6.9400
11.1248	7.0784
11.1010	7.2075
11.0773	7.3226
11.0536	7.4184
11.0301	7.5293
11.0067	7.6971
10.9834	7.8537
10.9602	7.9465
10.9370	7.9844
10.9140	8.0862
10.8911	8.2075
10.8682	8.2643
10.8455	8.3346
10.8229	8.4093
10.8003	8.4567
10.7779	8.5596
10.7555	8.6332
10.7332	8.7145
10.7111	8.8272
10.6890	8.9506
10.6670	9.0574
10.6451	9.2051
10.6233	9.3324
10.6015	9.4741
10.5799	9.6452
10.5584	9.8384
10.5369	10.0308
10.5155	10.2293
10.4942	10.4205
10.4730	10.6577
10.4519	10.9190
10.4309	11.1644
10.4099	11.4703
10.3891	11.7670
10.3683	12.0675
10.3476	12.3953
10.3270	12.7275
10.3065	13.0929
10.2860	13.5059
10.2656	13.9096
10.2454	14.3339
10.2251	14.7623
10.2050	15.1790
10.1850	15.6194
10.1650	16.1098
10.1451	16.5719
10.1253	17.0247
10.1056	17.5408
10.0859	18.0735
10.0663	18.6007
10.0468	19.1114
10.0274	19.6153
10.0080	20.1688
9.9887	20.7487
9.9695	21.3088
9.9504	21.8360
9.9313	22.3064
9.9123	22.6551
9.8934	22.8897
9.8746	23.0735
9.8558	23.1524
9.8371	23.1355
9.8185	23.0784
9.7999	23.0864
9.7814	23.2405
9.7630	23.5394
9.7447	23.9641
9.7264	24.5435
9.7082	25.2072
9.6900	25.7293
9.6719	26.1892
9.6539	26.8422
9.6360	27.3698
9.6181	27.6934
9.6003	27.9393
9.5825	28.1939
9.5649	28.5067
9.5472	28.7903
9.5297	29.0484
9.5122	29.2760
9.4948	29.4820
9.4774	29.8600
9.4601	30.3501
9.4429	30.7935
9.4257	31.2168
9.4086	31.6747
9.3916	32.2646
9.3746	33.0805
9.3577	33.9100
9.3408	34.6836
9.3240	35.3181
9.3073	35.7615
9.2906	36.0747
9.2740	36.2165
9.2574	36.2230
9.2409	36.2462
9.2245	36.1981
9.2081	36.0581
9.1918	35.9111
9.1755	35.7632
9.1593	35.5500
9.1431	35.2628
9.1270	34.8960
9.1110	34.4939
9.0950	34.1174
9.0791	33.7567
9.0632	33.4098
9.0474	33.1612
9.0316	32.8675
9.0159	32.5623
9.0003	32.4072
8.9847	32.3617
8.9691	32.3549
8.9536	32.4672
8.9382	32.6146
8.9228	32.8061
8.9075	33.0301
8.8922	33.2896
8.8770	33.5472
8.8618	33.8015
8.8467	34.0713
8.8316	34.3236
8.8166	34.4872
8.8016	34.5660
8.7867	34.6181
8.7718	34.6643
8.7570	34.6885
8.7422	34.6370
8.7275	34.5137
8.7129	34.3103
8.6982	33.9222
8.6837	33.2804
8.6692	32.2396
8.6547	30.6901
8.6403	29.0308
8.6259	28.3166
8.6116	29.1576
8.5973	30.8617
8.5830	32.3617
8.5688	33.2732
8.5547	33.7596
8.5406	33.9761
8.5266	34.0043
8.5126	33.9731
8.4986	33.8385
8.4847	33.6484
8.4708	33.4586
8.4570	33.2381
8.4432	33.0114
8.4295	32.7566
8.4158	32.4526
8.4022	32.0964
8.3886	31.7188
8.3750	31.2346
8.3615	30.7134
8.3481	30.3196
8.3347	29.7477
8.3213	29.0988
8.3079	28.4462
8.2946	27.8036
8.2814	27.1898
8.2682	26.5565
8.2550	25.9064
8.2419	25.2644
8.2288	24.5915
8.2158	23.8666
8.2028	23.1075
8.1898	22.2831
8.1769	21.3766
8.1640	20.3664
8.1512	19.2205
8.1384	17.9723
8.1256	16.6999
8.1129	15.4389
8.1002	14.2467
8.0876	13.1540
8.0750	12.1000
8.0624	11.1204
8.0499	10.2743
8.0374	9.4771
8.0250	8.7051
8.0126	8.0454
8.0002	7.4852
7.9879	6.8784
7.9756	6.2564
7.9634	5.7155
7.9512	5.1968
7.9390	4.7006
7.9268	4.2535
7.9147	3.8574
7.9027	3.5025
7.8906	3.2075
7.8786	2.9044
7.8667	2.6268
7.8548	2.4044
7.8429	2.2348
7.8310	2.0628
7.8192	1.9029
7.8075	1.7789
7.7957	1.7016
7.7840	1.6198
7.7723	1.5202
7.7607	1.4138
7.7491	1.3524
7.7375	1.2759
7.7260	1.1990
7.7145	1.1405
7.7031	1.0999
7.6916	1.0528
7.6802	1.0118
7.6689	0.9389
7.6575	0.8538
7.6462	0.8501
7.6350	0.8290
7.6238	0.7828
7.6126	0.7781
7.6014	0.7709
7.5903	0.7259
7.5792	0.6659
7.5681	0.6375
7.5571	0.6342
7.5461	0.6291
7.5351	0.6136
7.5242	0.6033
7.5133	0.5953
7.5024	0.5761
7.4916	0.5634
7.4807	0.5873
7.4700	0.6099
7.4592	0.6239
7.4485	0.6239
7.4378	0.6324
7.4272	0.6468
7.4165	0.6748
7.4059	0.6797
7.3954	0.6790
7.3848	0.7008
7.3743	0.7226
7.3639	0.7460
7.3534	0.7467
7.3430	0.7259
7.3326	0.7169
7.3223	0.7068
7.3119	0.7118
7.3016	0.7052
7.2914	0.7064
7.2811	0.7207
7.2709	0.7437
7.2607	0.7425
7.2506	0.7374
7.2404	0.7462
7.2303	0.7650
7.2203	0.7903
7.2102	0.8029
7.2002	0.8013
7.1902	0.8290
7.1803	0.8672
7.1703	0.8894
7.1604	0.9150
7.1506	0.9296
7.1407	0.9598
7.1309	1.0005
7.1211	1.0239
7.1113	1.0186
7.1016	1.0289
7.0919	1.0561
7.0822	1.0641
7.0725	1.0732
7.0629	1.0779
7.0533	1.0594
7.0437	1.0605
7.0341	1.0758
7.0246	1.0699
7.0151	1.0781
7.0056	1.0781
6.9962	1.0764
6.9867	1.0901
6.9773	1.1062
6.9679	1.1078
6.9586	1.1280
6.9493	1.1480
6.9400	1.1637
6.9307	1.1960
6.9214	1.1988
6.9122	1.1993
6.9030	1.2307
6.8938	1.2610
6.8847	1.2639
6.8755	1.2701
6.8664	1.2649
6.8573	1.2729
6.8483	1.2839
6.8393	1.2921
6.8302	1.3020
6.8213	1.2878
6.8123	1.2780
6.8034	1.2457
6.7944	1.2278
6.7855	1.2522
6.7767	1.2701
6.7678	1.2748
6.7590	1.2841
6.7502	1.3055
6.7414	1.3057
6.7327	1.2925
6.7239	1.3188
6.7152	1.3530
6.7065	1.3767
6.6979	1.3982
6.6892	1.4065
6.6806	1.4213
6.6720	1.4606
6.6634	1.4724
6.6549	1.4683
6.6464	1.4717
6.6378	1.4564
6.6294	1.4482
6.6209	1.4604
6.6124	1.4984
6.6040	1.5094
6.5956	1.4885
6.5872	1.4721
6.5789	1.4486
6.5705	1.4582
6.5622	1.4681
6.5539	1.4730
6.5456	1.4852
6.5374	1.4834
6.5292	1.4733
6.5209	1.4831
6.5128	1.5042
6.5046	1.5338
6.4964	1.5539
6.4883	1.5867
6.4802	1.5987
6.4721	1.5886
6.4640	1.6296
6.4560	1.6598
6.4480	1.6605
6.4399	1.6572
6.4320	1.6643
6.4240	1.6737
6.4160	1.6579
6.4081	1.6467
6.4002	1.6434
6.3923	1.6327
6.3844	1.6249
6.3766	1.6148
6.3687	1.6067
6.3609	1.6083
6.3531	1.6099
6.3454	1.6143
6.3376	1.6039
6.3299	1.5928
6.3221	1.5966
6.3144	1.6218
6.3068	1.6348
6.2991	1.6364
6.2914	1.6451
6.2838	1.6504
6.2762	1.6629
6.2686	1.6706
6.2611	1.6807
6.2535	1.6964
6.2460	1.6990
6.2385	1.6814
6.2310	1.6894
6.2235	1.6821
6.2160	1.6577
6.2086	1.6528
6.2011	1.6605
6.1937	1.6608
6.1863	1.6618
6.1790	1.6575
6.1716	1.6579
6.1643	1.6718
6.1570	1.6589
6.1496	1.6577
6.1424	1.6873
6.1351	1.6933
6.1278	1.6722
6.1206	1.7044
6.1134	1.7306
6.1062	1.7538
6.0990	1.7953
6.0918	1.8333
6.0847	1.8363
6.0776	1.8431
6.0704	1.8558
6.0633	1.8551
6.0563	1.8504
6.0492	1.8581
6.0421	1.8501
6.0351	1.8652
6.0281	1.8795
6.0211	1.8443
6.0141	1.8342
6.0071	1.8514
6.0002	1.8504
5.9932	1.8543
5.9863	1.8574
5.9794	1.8387
5.9725	1.8490
5.9657	1.8782
5.9588	1.8984
5.9520	1.9003
5.9451	1.8961
5.9383	1.8949
5.9315	1.9097
5.9247	1.9177
5.9180	1.9289
5.9112	1.9423
5.9045	1.9716
5.8978	1.9865
5.8911	1.9894
5.8844	2.0076
5.8777	2.0151
5.8711	1.9903
5.8644	1.9753
5.8578	1.9814
5.8512	1.9957
5.8446	1.9955
5.8380	2.0184
5.8314	2.0322
5.8249	2.0398
5.8184	2.0482
5.8118	2.0527
5.8053	2.0384
5.7988	2.0377
5.7923	2.0655
5.7859	2.0818
5.7794	2.0820
5.7730	2.1037
5.7666	2.1377
5.7602	2.1530
5.7538	2.1577
5.7474	2.1701
5.7410	2.1712
5.7347	2.1539
5.7283	2.1490
5.7220	2.1787
5.7157	2.1820
5.7094	2.1670
5.7031	2.1684
5.6969	2.1851
5.6906	2.1870
5.6844	2.1595
5.6782	2.1506
5.6719	2.1663
5.6657	2.1736
5.6596	2.1560
5.6534	2.1398
5.6472	2.1288
5.6411	2.1457
5.6349	2.1616
5.6288	2.1567
5.6227	2.1438
5.6166	2.1438
5.6106	2.1516
5.6045	2.1639
5.5984	2.1712
5.5924	2.1682
5.5864	2.1712
5.5804	2.1977
5.5744	2.1853
5.5684	2.1610
5.5624	2.1755
5.5564	2.1900
5.5505	2.2146
5.5445	2.2188
5.5386	2.2101
5.5327	2.2298
5.5268	2.2514
5.5209	2.2641
5.5151	2.2823
5.5092	2.3107
5.5033	2.3247
5.4975	2.3218
5.4917	2.3351
5.4859	2.3491
5.4801	2.3522
5.4743	2.3681
5.4685	2.4057
5.4628	2.4372
5.4570	2.4527
5.4513	2.4447
5.4455	2.4434
5.4398	2.4696
5.4341	2.4774
5.4284	2.4621
5.4228	2.4420
5.4171	2.4516
5.4114	2.4839
5.4058	2.4919
5.4002	2.4820
5.3945	2.4825
5.3889	2.4778
5.3833	2.4710
5.3778	2.4785
5.3722	2.4797
5.3666	2.4907
5.3611	2.5003
5.3555	2.4878
5.3500	2.4829
5.3445	2.5059
5.3390	2.5106
5.3335	2.5114
5.3280	2.5324
5.3225	2.5406
5.3171	2.5343
5.3116	2.5446
5.3062	2.5680
5.3008	2.5704
5.2954	2.5676
5.2900	2.5690
5.2846	2.5732
5.2792	2.5814
5.2738	2.5957
5.2684	2.6041
5.2631	2.5901
5.2578	2.5898
5.2524	2.6309
5.2471	2.6540
5.2418	2.6536
5.2365	2.6698
5.2312	2.6841
5.2260	2.7068
5.2207	2.7319
5.2154	2.7382
5.2102	2.7684
5.2050	2.8050
5.1998	2.8218
5.1945	2.8437
5.1893	2.8647
5.1842	2.8692
5.1790	2.8943
5.1738	2.9086
5.1686	2.9161
5.1635	2.9301
5.1584	2.9369
5.1532	2.9556
5.1481	2.9868
5.1430	2.9995
5.1379	2.9922
5.1328	3.0101
5.1277	3.0302
5.1227	3.0457
5.1176	3.0668
5.1126	3.0883
5.1075	3.1104
5.1025	3.1356
5.0975	3.1517
5.0925	3.1643
5.0875	3.1760
5.0825	3.1987
5.0775	3.2243
5.0726	3.2245
5.0676	3.2182
5.0627	3.2306
5.0577	3.2548
5.0528	3.2820
5.0479	3.3010
5.0430	3.2963
5.0380	3.2963
5.0332	3.3150
5.0283	3.3145
5.0234	3.3176
5.0185	3.3148
5.0137	3.3197
5.0088	3.3236
5.0040	3.3384
4.9992	3.3527
4.9944	3.3614
4.9896	3.3727
4.9848	3.3907
4.9800	3.4083
4.9752	3.4221
4.9704	3.4135
4.9657	3.4563
4.9609	3.5205
4.9562	3.5335
4.9514	3.5306
4.9467	3.5439
4.9420	3.5777
4.9373	3.5871
4.9326	3.5798
4.9279	3.5657
4.9232	3.5599
4.9186	3.5712
4.9139	3.5787
4.9092	3.5935
4.9046	3.6368
4.9000	3.6560
4.8953	3.6673
4.8907	3.7008
4.8861	3.7432
4.8815	3.7826
4.8769	3.8158
4.8723	3.8503
4.8678	3.8967
4.8632	3.9485
4.8586	3.9750
4.8541	3.9891
4.8495	4.0298
4.8450	4.0537
4.8405	4.1182
4.8360	4.1847
4.8315	4.1909
4.8270	4.1993
4.8225	4.2031
4.8180	4.2140
4.8135	4.2199
4.8090	4.2166
4.8046	4.2176
4.8001	4.2265
4.7957	4.2408
4.7913	4.2473
4.7868	4.2522
4.7824	4.2426
4.7780	4.2548
4.7736	4.2851
4.7692	4.3021
4.7648	4.3223
4.7605	4.3418
4.7561	4.3659
4.7517	4.3929
4.7474	4.4210
4.7431	4.4444
4.7387	4.4477
4.7344	4.4789
4.7301	4.5033
4.7258	4.5206
4.7215	4.5464
4.7172	4.5228
4.7129	4.4794
4.7086	4.5138
4.7043	4.5132
4.7000	4.4964
4.6958	4.4749
4.6915	4.4449
4.6873	4.4433
4.6831	4.4436
4.6788	4.4335
4.6746	4.4414
4.6704	4.4665
4.6662	4.5084
4.6620	4.5436
4.6578	4.5839
4.6536	4.6425
4.6495	4.7002
4.6453	4.7267
4.6411	4.7634
4.6370	4.8101
4.6328	4.8689
4.6287	4.9260
4.6246	4.9621
4.6205	5.0147
4.6163	5.0847
4.6122	5.1140
4.6081	5.1281
4.6040	5.1447
4.6000	5.1881
4.5959	5.2193
4.5918	5.2329
4.5877	5.2568
4.5837	5.2873
4.5796	5.3275
4.5756	5.3433
4.5716	5.3395
4.5675	5.3651
4.5635	5.3914
4.5595	5.3964
4.5555	5.4283
4.5515	5.4445
4.5475	5.4342
4.5435	5.4511
4.5395	5.4694
4.5356	5.4792
4.5316	5.4904
4.5276	5.5017
4.5237	5.5094
4.5197	5.4851
4.5158	5.4797
4.5119	5.4689
4.5080	5.4293
4.5040	5.4174
4.5001	5.4312
4.4962	5.4075
4.4923	5.3995
4.4884	5.4225
4.4846	5.3960
4.4807	5.3681
4.4768	5.4223
4.4730	5.4823
4.4691	5.5057
4.4652	5.5096
4.4614	5.5596
4.4576	5.6241
4.4537	5.6730
4.4499	5.7002
4.4461	5.7232
4.4423	5.7914
4.4385	5.8566
4.4347	5.9119
4.4309	5.9602
4.4271	5.9967
4.4233	6.0368
4.4196	6.1047
4.4158	6.1645
4.4120	6.1906
4.4083	6.2252
4.4045	6.2917
4.4008	6.3534
4.3971	6.4024
4.3934	6.4542
4.3896	6.4816
4.3859	6.5208
4.3822	6.6065
4.3785	6.6909
4.3748	6.7675
4.3711	6.8288
4.3674	6.8845
4.3638	6.9644
4.3601	7.0631
4.3564	7.1288
4.3528	7.1810
4.3491	7.2680
4.3455	7.3647
4.3418	7.4413
4.3382	7.5059
4.3346	7.5780
4.3310	7.6387
4.3273	7.6875
4.3237	7.7426
4.3201	7.8026
4.3165	7.8441
4.3129	7.8642
4.3094	7.8813
4.3058	7.9169
4.3022	7.9408
4.2986	7.9380
4.2951	7.9532
4.2915	7.9906
4.2880	8.0283
4.2844	8.0594
4.2809	8.0880
4.2774	8.0878
4.2738	8.1173
4.2703	8.1403
4.2668	8.1595
4.2633	8.2764
4.2598	8.4190
4.2563	8.5478
4.2528	8.6496
4.2493	8.7122
4.2458	8.7595
4.2424	8.7937
4.2389	8.8143
4.2354	8.8500
4.2320	8.9020
4.2285	8.9491
4.2251	8.9948
4.2216	9.0274
4.2182	9.0398
4.2148	9.0649
4.2113	9.1127
4.2079	9.1451
4.2045	9.1376
4.2011	9.1439
4.1977	9.1884
4.1943	9.2278
4.1909	9.2618
4.1875	9.3114
4.1841	9.3635
4.1808	9.4029
4.1774	9.4758
4.1740	9.5475
4.1707	9.5950
4.1673	9.6475
4.1640	9.7090
4.1606	9.7558
4.1573	9.7882
4.1540	9.8480
4.1506	9.9208
4.1473	9.9660
4.1440	10.0078
4.1407	10.0678
4.1374	10.0917
4.1341	10.1055
4.1308	10.1437
4.1275	10.1789
4.1242	10.2049
4.1209	10.2286
4.1177	10.2644
4.1144	10.3158
4.1111	10.3498
4.1079	10.3980
4.1046	10.4545
4.1014	10.4984
4.0981	10.5441
4.0949	10.6008
4.0917	10.6713
4.0884	10.7421
4.0852	10.7888
4.0820	10.8441
4.0788	10.9047
4.0756	10.9566
4.0724	11.0006
4.0692	11.0343
4.0660	11.0496
4.0628	11.0509
4.0596	11.0732
4.0565	11.0908
4.0533	11.0833
4.0501	11.0648
4.0470	11.0545
4.0438	11.0205
4.0406	10.9985
4.0375	10.9769
4.0344	10.9577
4.0312	10.9713
4.0281	10.9547
4.0250	10.8974
4.0218	10.8823
4.0187	10.8914
4.0156	10.9012
4.0125	10.9045
4.0094	10.9134
4.0063	10.9216
4.0032	10.9406
4.0001	10.9352
3.9970	10.9335
3.9940	10.9596
3.9909	10.9516
3.9878	10.9376
3.9847	10.9446
3.9817	10.9462
3.9786	10.9603
3.9756	10.9956
3.9725	11.0220
3.9695	11.0402
3.9665	11.0716
3.9634	11.1106
3.9604	11.1550
3.9574	11.2078
3.9544	11.2704
3.9513	11.3470
3.9483	11.4220
3.9453	11.4834
3.9423	11.5732
3.9393	11.6608
3.9363	11.7189
3.9333	11.7806
3.9304	11.8570
3.9274	11.9055
3.9244	11.9384
3.9214	11.9831
3.9185	12.0257
3.9155	12.0564
3.9126	12.0600
3.9096	12.0508
3.9067	12.0635
3.9037	12.0607
3.9008	12.0555
3.8979	12.0462
3.8949	12.0241
3.8920	12.0005
3.8891	11.9810
3.8862	11.9651
3.8833	11.9465
3.8804	11.9262
3.8775	11.9095
3.8746	11.9076
3.8717	11.9046
3.8688	11.9221
3.8659	11.9311
3.8630	11.9358
3.8601	11.9636
3.8573	11.9984
3.8544	12.0337
3.8515	12.0553
3.8487	12.0789
3.8458	12.1242
3.8430	12.1680
3.8401	12.1927
3.8373	12.2148
3.8344	12.2529
3.8316	12.2820
3.8288	12.3000
3.8259	12.3260
3.8231	12.3468
3.8203	12.3584
3.8175	12.3609
3.8147	12.3900
3.8119	12.4190
3.8091	12.4355
3.8063	12.4638
3.8035	12.4854
3.8007	12.4906
3.7979	12.5048
3.7951	12.5145
3.7924	12.5278
3.7896	12.5463
3.7868	12.5678
3.7841	12.5636
3.7813	12.5721
3.7785	12.6103
3.7758	12.6171
3.7730	12.6176
3.7703	12.6161
3.7676	12.5981
3.7648	12.5602
3.7621	12.5360
3.7594	12.5109
3.7566	12.4867
3.7539	12.4717
3.7512	12.4441
3.7485	12.4012
3.7458	12.3904
3.7431	12.3839
3.7404	12.3541
3.7377	12.3412
3.7350	12.3581
3.7323	12.3776
3.7296	12.3797
3.7269	12.3942
3.7242	12.4212
3.7216	12.4511
3.7189	12.4906
3.7162	12.5379
3.7136	12.5753
3.7109	12.6173
3.7083	12.6534
3.7056	12.6940
3.7030	12.7418
3.7003	12.7959
3.6977	12.8364
3.6950	12.8629
3.6924	12.8651
3.6898	12.8969
3.6872	12.9159
3.6845	12.9152
3.6819	12.9197
3.6793	12.9262
3.6767	12.9366
3.6741	12.9504
3.6715	12.9701
3.6689	12.9787
3.6663	12.9958
3.6637	13.0117
3.6611	13.0277
3.6585	13.0404
3.6560	13.0561
3.6534	13.0816
3.6508	13.1119
3.6482	13.1379
3.6457	13.1376
3.6431	13.1386
3.6406	13.1498
3.6380	13.1543
3.6355	13.1561
3.6329	13.1470
3.6304	13.1449
3.6278	13.1292
3.6253	13.0964
3.6227	13.0545
3.6202	13.0012
3.6177	12.9496
3.6152	12.9065
3.6127	12.8740
3.6101	12.8634
3.6076	12.8482
3.6051	12.8280
3.6026	12.7906
3.6001	12.7652
3.5976	12.7548
3.5951	12.7429
3.5926	12.7309
3.5901	12.7371
3.5876	12.7683
3.5852	12.7743
3.5827	12.7551
3.5802	12.7402
3.5777	12.7429
3.5753	12.7223
3.5728	12.7223
3.5704	12.7209
3.5679	12.6911
3.5654	12.6516
3.5630	12.6084
3.5605	12.5678
3.5581	12.5270
3.5557	12.4914
3.5532	12.4633
3.5508	12.3963
3.5484	12.3368
3.5459	12.3037
3.5435	12.2709
3.5411	12.2386
3.5387	12.2161
3.5363	12.1830
3.5338	12.1598
3.5314	12.1293
3.5290	12.1218
3.5266	12.0998
3.5242	12.0571
3.5218	12.0178
3.5195	11.9887
3.5171	11.9327
3.5147	11.8729
3.5123	11.8003
3.5099	11.7093
3.5075	11.6296
3.5052	11.5786
3.5028	11.5239
3.5004	11.4525
3.4981	11.4131
3.4957	11.3885
3.4934	11.3639
3.4910	11.3231
3.4887	11.2352
3.4863	11.1654
3.4840	11.1555
3.4816	11.1093
3.4793	11.0564
3.4770	11.0402
3.4746	11.0514
3.4723	11.0444
3.4700	11.0339
3.4677	11.0337
3.4653	11.0313
3.4630	11.0179
3.4607	11.0109
3.4584	11.0093
3.4561	10.9877
3.4538	10.9483
3.4515	10.9085
3.4492	10.8517
3.4469	10.7953
3.4446	10.7350
3.4423	10.6636
3.4400	10.5823
3.4378	10.4990
3.4355	10.4107
3.4332	10.3197
3.4309	10.2159
3.4287	10.1031
3.4264	10.0223
3.4241	9.9449
3.4219	9.8815
3.4196	9.8285
3.4174	9.7706
3.4151	9.7355
3.4129	9.7498
3.4106	9.7605
3.4084	9.7352
3.4061	9.7062
3.4039	9.7202
3.4017	9.7235
3.3994	9.7073
3.3972	9.6898
3.3950	9.6823
3.3928	9.6488
3.3906	9.5906
3.3883	9.5341
3.3861	9.4605
3.3839	9.4005
3.3817	9.3579
3.3795	9.2899
3.3773	9.2196
3.3751	9.1896
3.3729	9.1516
3.3707	9.0942
3.3685	9.0244
3.3663	9.0133
3.3641	9.0210
3.3620	8.9896
3.3598	8.9489
3.3576	8.9330
3.3554	8.9264
3.3533	8.9142
3.3511	8.8786
3.3489	8.8449
3.3468	8.8504
3.3446	8.8345
3.3425	8.8031
3.3403	8.7815
3.3382	8.7438
3.3360	8.7021
3.3339	8.6550
3.3317	8.6018
3.3296	8.5382
3.3274	8.4852
3.3253	8.4244
3.3232	8.3587
3.3210	8.3104
3.3189	8.2481
3.3168	8.1759
3.3147	8.1251
3.3126	8.0808
3.3104	8.0177
3.3083	7.9877
3.3062	7.9743
3.3041	7.9343
3.3020	7.8928
3.2999	7.8787
3.2978	7.8710
3.2957	7.8389
3.2936	7.8251
3.2915	7.8007
3.2894	7.7510
3.2874	7.7268
3.2853	7.6812
3.2832	7.6324
3.2811	7.6050
3.2790	7.5351
3.2770	7.4824
3.2749	7.4376
3.2728	7.3428
3.2708	7.2891
3.2687	7.2876
3.2666	7.2192
3.2646	7.1217
3.2625	7.0760
3.2605	7.0470
3.2584	6.9852
3.2564	6.9488
3.2543	6.9372
3.2523	6.8981
3.2503	6.8771
3.2482	6.8695
3.2462	6.8428
3.2442	6.8325
3.2421	6.8257
3.2401	6.8145
3.2381	6.7966
3.2361	6.7734
3.2340	6.7273
3.2320	6.6849
3.2300	6.6560
3.2280	6.5979
3.2260	6.5493
3.2240	6.5220
3.2220	6.4624
3.2200	6.4038
3.2180	6.3511
3.2160	6.2974
3.2140	6.2413
3.2120	6.1706
3.2100	6.1312
3.2080	6.1132
3.2060	6.0989
3.2040	6.0729
3.2021	6.0485
3.2001	6.0522
3.1981	6.0478
3.1961	6.0302
3.1942	5.9972
3.1922	5.9932
3.1902	6.0106
3.1883	5.9634
3.1863	5.9402
3.1844	5.9423
3.1824	5.9221
3.1805	5.8868
3.1785	5.8374
3.1766	5.7888
3.1746	5.7431
3.1727	5.7096
3.1707	5.6555
3.1688	5.5837
3.1669	5.5610
3.1649	5.5333
3.1630	5.5116
3.1611	5.4834
3.1591	5.4236
3.1572	5.4023
3.1553	5.4010
3.1534	5.3951
3.1515	5.3817
3.1495	5.3423
3.1476	5.3460
3.1457	5.3587
3.1438	5.3496
3.1419	5.3480
3.1400	5.3564
3.1381	5.3620
3.1362	5.3376
3.1343	5.2992
3.1324	5.2688
3.1305	5.2332
3.1286	5.1895
3.1268	5.1492
3.1249	5.1438
3.1230	5.1298
3.1211	5.0920
3.1192	5.0628
3.1174	5.0327
3.1155	4.9835
3.1136	4.9540
3.1117	4.9434
3.1099	4.9382
3.1080	4.9146
3.1061	4.9137
3.1043	4.9235
3.1024	4.9132
3.1006	4.9071
3.0987	4.9260
3.0969	4.9428
3.0950	4.9390
3.0932	4.9415
3.0913	4.9155
3.0895	4.9005
3.0876	4.9289
3.0858	4.9350
3.0840	4.8972
3.0821	4.8740
3.0803	4.8799
3.0785	4.8867
3.0766	4.8530
3.0748	4.8108
3.0730	4.7988
3.0712	4.7810
3.0694	4.7470
3.0675	4.7330
3.0657	4.7395
3.0639	4.7234
3.0621	4.6910
3.0603	4.6769
3.0585	4.6997
3.0567	4.7032
3.0549	4.7072
3.0531	4.7177
3.0513	4.7294
3.0495	4.7475
3.0477	4.7868
3.0459	4.7688
3.0441	4.7433
3.0423	4.7602
3.0406	4.7709
3.0388	4.7386
3.0370	4.6882
3.0352	4.6943
3.0334	4.6671
3.0317	4.6332
3.0299	4.6179
3.0281	4.5935
3.0264	4.5940
3.0246	4.5813
3.0228	4.5656
3.0211	4.5576
3.0193	4.5321
3.0176	4.5119
3.0158	4.5457
3.0140	4.5706
3.0123	4.5855
3.0105	4.5771
3.0088	4.5647
3.0070	4.5771
3.0053	4.6041
3.0036	4.5876
3.0018	4.5750
3.0001	4.5966
2.9984	4.5895
2.9966	4.5584
2.9949	4.5537
2.9932	4.5379
2.9914	4.5375
2.9897	4.5429
2.9880	4.4914
2.9863	4.4695
2.9845	4.4532
2.9828	4.4294
2.9811	4.4125
2.9794	4.4128
2.9777	4.4301
2.9760	4.4517
2.9743	4.4574
2.9726	4.4433
2.9709	4.4585
2.9692	4.4360
2.9675	4.4121
2.9658	4.4163
2.9641	4.4555
2.9624	4.4700
2.9607	4.4317
2.9590	4.4410
2.9573	4.4374
2.9556	4.4243
2.9539	4.4124
2.9523	4.4109
2.9506	4.4156
2.9489	4.3896
2.9472	4.3786
2.9455	4.3844
2.9439	4.3884
2.9422	4.3748
2.9405	4.3694
2.9389	4.3943
2.9372	4.4179
2.9355	4.4093
2.9339	4.3950
2.9322	4.3823
2.9306	4.4057
2.9289	4.4205
2.9272	4.4086
2.9256	4.3961
2.9239	4.4384
2.9223	4.4916
2.9207	4.5164
2.9190	4.5033
2.9174	4.4941
2.9157	4.4784
2.9141	4.5117
2.9124	4.5204
2.9108	4.4792
2.9092	4.4538
2.9075	4.4725
2.9059	4.5129
2.9043	4.4939
2.9027	4.4772
2.9010	4.4730
2.8994	4.4719
2.8978	4.4796
2.8962	4.5421
2.8946	4.5616
2.8929	4.5511
2.8913	4.5818
2.8897	4.5588
2.8881	4.5600
2.8865	4.6184
2.8849	4.6252
2.8833	4.6242
2.8817	4.6800
2.8801	4.6498
2.8785	4.6380
2.8769	4.6849
2.8753	4.7081
2.8737	4.7130
2.8721	4.6671
2.8705	4.6332
2.8689	4.6746
2.8673	4.6859
2.8658	4.6592
2.8642	4.6634
2.8626	4.6854
2.8610	4.6868
2.8594	4.7011
2.8579	4.7221
2.8563	4.7475
2.8547	4.7733
2.8531	4.8010
2.8516	4.8349
2.8500	4.8750
2.8484	4.9055
2.8469	4.9096
2.8453	4.8836
2.8437	4.9179
2.8422	4.9551
2.8406	4.9776
2.8391	4.9889
2.8375	4.9610
2.8360	4.9353
2.8344	4.9355
2.8329	4.9514
2.8313	4.9755
2.8298	4.9714
2.8282	4.9465
2.8267	4.9429
2.8252	4.9919
2.8236	4.9987
2.8221	5.0226
2.8205	5.0501
2.8190	5.0386
2.8175	5.0482
2.8159	5.1054
2.8144	5.1691
2.8129	5.2197
2.8114	5.2475
2.8098	5.2455
2.8083	5.2641
2.8068	5.2978
2.8053	5.2781
2.8038	5.2462
2.8022	5.2772
2.8007	5.3215
2.7992	5.2472
2.7977	5.2073
2.7962	5.2406
2.7947	5.2390
2.7932	5.2298
2.7917	5.2109
2.7902	5.2392
2.7887	5.2525
2.7872	5.2355
2.7857	5.2402
2.7842	5.2498
2.7827	5.2617
2.7812	5.2671
2.7797	5.3060
2.7782	5.3397
2.7767	5.3580
2.7752	5.4016
2.7738	5.4708
2.7723	5.4750
2.7708	5.4753
2.7693	5.4881
2.7678	5.4829
2.7664	5.4553
2.7649	5.4631
2.7634	5.4537
2.7619	5.3930
2.7605	5.3845
2.7590	5.4197
2.7575	5.4546
2.7561	5.5247
2.7546	5.5382
2.7531	5.5254
2.7517	5.6203
2.7502	5.7215
2.7488	5.7590
2.7473	5.8073
2.7458	5.9088
2.7444	6.0185
2.7429	6.0853
2.7415	6.1812
2.7400	6.3361
2.7386	6.4521
2.7371	6.5194
2.7357	6.6204
2.7343	6.7760
2.7328	6.9429
2.7314	7.0333
2.7299	7.1452
2.7285	7.3059
2.7271	7.4023
2.7256	7.5252
2.7242	7.7107
2.7228	7.8732
2.7213	8.0660
2.7199	8.2675
2.7185	8.4764
2.7171	8.6529
2.7156	8.8050
2.7142	8.9974
2.7128	9.1945
2.7114	9.3013
2.7100	9.4088
2.7085	9.5119
2.7071	9.6086
2.7057	9.7221
2.7043	9.9564
2.7029	10.3218
2.7015	10.7210
2.7001	11.1651
2.6987	11.6463
2.6973	12.0412
2.6959	12.4024
2.6945	12.7504
2.6931	13.0603
2.6917	13.3563
2.6903	13.6524
2.6889	13.9044
2.6875	14.1633
2.6861	14.3913
2.6847	14.5628
2.6833	14.7403
2.6819	14.9360
2.6805	15.1158
2.6791	15.2896
2.6778	15.4652
2.6764	15.6215
2.6750	15.7692
2.6736	15.8807
2.6722	16.0748
2.6709	16.2752
2.6695	16.3976
2.6681	16.5093
2.6667	16.6474
2.6654	16.7519
2.6640	16.8520
2.6626	16.9436
2.6613	17.0362
2.6599	17.1213
2.6585	17.1529
2.6572	17.1930
2.6558	17.2605
2.6545	17.3247
2.6531	17.3296
2.6517	17.3172
2.6504	17.3482
2.6490	17.3894
2.6477	17.4511
2.6463	17.4623
2.6450	17.4628
2.6436	17.5405
2.6423	17.6029
2.6409	17.6756
2.6396	17.7813
2.6382	17.8734
2.6369	17.9484
2.6356	17.9646
2.6342	18.0255
2.6329	18.0880
2.6315	18.1553
2.6302	18.2386
2.6289	18.2981
2.6275	18.3637
2.6262	18.3407
2.6249	18.3163
2.6236	18.3304
2.6222	18.3096
2.6209	18.3187
2.6196	18.3377
2.6183	18.3304
2.6169	18.2669
2.6156	18.1800
2.6143	18.1490
2.6130	18.1813
2.6117	18.2496
2.6103	18.2899
2.6090	18.2796
2.6077	18.3327
2.6064	18.4284
2.6051	18.5114
2.6038	18.5332
2.6025	18.5913
2.6012	18.6709
2.5999	18.7422
2.5986	18.8057
2.5973	18.8319
2.5960	18.8678
2.5947	18.9103
2.5934	18.9012
2.5921	18.8779
2.5908	18.8327
2.5895	18.8317
2.5882	18.8340
2.5869	18.7485
2.5856	18.6829
2.5843	18.6773
2.5830	18.6428
2.5817	18.6108
2.5805	18.5796
2.5792	18.6018
2.5779	18.6464
2.5766	18.6447
2.5753	18.6731
2.5741	18.7303
2.5728	18.7867
2.5715	18.8659
2.5702	18.9142
2.5690	18.9443
2.5677	19.0241
2.5664	19.0706
2.5651	19.0617
2.5639	19.0722
2.5626	19.0875
2.5613	19.0997
2.5601	19.1001
2.5588	19.0659
2.5575	18.9984
2.5563	18.9569
2.5550	18.9348
2.5538	18.8639
2.5525	18.7888
2.5513	18.7350
2.5500	18.7057
2.5487	18.6609
2.5475	18.6630
2.5462	18.7195
2.5450	18.7579
2.5437	18.7537
2.5425	18.8127
2.5413	18.8817
2.5400	18.8988
2.5388	18.9323
2.5375	18.9951
2.5363	19.0971
2.5350	19.1521
2.5338	19.1643
2.5326	19.1999
2.5313	19.2290
2.5301	19.2319
2.5289	19.1770
2.5276	19.1194
2.5264	19.0884
2.5252	19.0495
2.5239	19.0347
2.5227	19.0326
2.5215	18.9548
2.5202	18.8751
2.5190	18.8261
2.5178	18.8311
2.5166	18.8236
2.5154	18.8130
2.5141	18.8383
2.5129	18.8844
2.5117	18.9459
2.5105	18.9974
2.5093	19.0220
2.5081	19.0356
2.5068	19.1535
2.5056	19.2693
2.5044	19.3002
2.5032	19.3218
2.5020	19.3623
2.5008	19.3862
2.4996	19.3786
2.4984	19.3891
2.4972	19.3724
2.4960	19.3233
2.4948	19.2651
2.4936	19.2654
2.4924	19.2384
2.4912	19.1381
2.4900	19.0809
2.4888	19.0596
2.4876	19.0631
2.4864	19.0335
2.4852	19.0670
2.4840	19.1170
2.4828	19.0982
2.4816	19.1059
2.4805	19.2487
2.4793	19.3472
2.4781	19.3875
2.4769	19.4194
2.4757	19.5335
2.4745	19.6335
2.4734	19.6804
2.4722	19.7259
2.4710	19.7732
2.4698	19.7413
2.4686	19.7132
2.4675	19.7311
2.4663	19.7257
2.4651	19.6966
2.4640	19.6075
2.4628	19.5576
2.4616	19.4995
2.4604	19.4672
2.4593	19.4010
2.4581	19.3750
2.4569	19.3745
2.4558	19.3992
2.4546	19.4608
2.4535	19.4798
2.4523	19.4470
2.4511	19.4817
2.4500	19.5693
2.4488	19.6833
2.4477	19.7939
2.4465	19.8649
2.4454	19.8914
2.4442	19.9535
2.4431	20.0043
2.4419	20.0343
2.4408	20.0366
2.4396	20.0563
2.4385	20.0189
2.4373	19.9596
2.4362	19.9591
2.4350	19.9812
2.4339	19.9732
2.4327	19.8921
2.4316	19.8356
2.4305	19.8377
2.4293	19.8487
2.4282	19.8421
2.4270	19.8595
2.4259	19.8752
2.4248	19.9256
2.4236	19.9973
2.4225	20.0418
2.4214	20.0990
2.4202	20.1758
2.4191	20.2830
2.4180	20.3844
2.4169	20.4597
2.4157	20.5358
2.4146	20.6076
2.4135	20.6048
2.4124	20.5921
2.4112	20.6615
2.4101	20.6844
2.4090	20.6376
2.4079	20.6142
2.4068	20.5884
2.4056	20.5467
2.4045	20.5331
2.4034	20.5233
2.4023	20.5371
2.4012	20.5139
2.4001	20.5077
2.3990	20.5052
2.3979	20.4951
2.3967	20.5101
2.3956	20.5724
2.3945	20.5893
2.3934	20.6416
2.3923	20.7152
2.3912	20.7519
2.3901	20.7843
2.3890	20.8480
2.3879	20.8893
2.3868	20.8940
2.3857	20.9533
2.3846	20.9917
2.3835	20.9953
2.3824	21.0070
2.3813	21.0262
2.3802	20.9791
2.3791	20.9484
2.3781	20.9296
2.3770	20.8997
2.3759	20.8597
2.3748	20.7651
2.3737	20.7025
2.3726	20.7374
2.3715	20.8150
2.3704	20.8387
2.3694	20.8317
2.3683	20.8319
2.3672	20.8617
2.3661	20.9460
2.3650	21.0225
2.3640	21.0318
2.3629	21.0576
2.3618	21.0825
2.3607	21.1166
2.3597	21.1436
2.3586	21.2212
2.3575	21.2779
2.3564	21.2327
2.3554	21.1337
2.3543	21.1363
2.3532	21.1514
2.3522	21.0705
2.3511	21.0604
2.3500	21.0641
2.3490	21.0112
2.3479	20.9916
2.3468	20.9690
2.3458	20.9550
2.3447	20.9823
2.3436	20.9939
2.3426	21.0126
2.3415	21.0599
2.3405	21.1644
2.3394	21.2038
2.3384	21.2441
2.3373	21.2924
2.3363	21.3537
2.3352	21.4213
2.3342	21.4833
2.3331	21.5210
2.3321	21.5404
2.3310	21.5964
2.3300	21.6436
2.3289	21.6304
2.3279	21.5999
2.3268	21.6539
2.3258	21.6384
2.3247	21.6386
2.3237	21.6135
2.3226	21.5547
2.3216	21.5573
2.3206	21.6013
2.3195	21.6272
2.3185	21.6557
2.3175	21.6576
2.3164	21.6665
2.3154	21.7570
2.3144	21.8238
2.3133	21.8311
2.3123	21.8362
2.3113	21.8774
2.3102	21.9290
2.3092	21.9693
2.3082	22.0685
2.3071	22.1231
2.3061	22.1558
2.3051	22.1676
2.3041	22.1202
2.3030	22.1287
2.3020	22.1610
2.3010	22.1714
2.3000	22.1986
2.2990	22.1976
2.2979	22.1475
2.2969	22.1202
2.2959	22.1366
2.2949	22.1127
2.2939	22.0833
2.2929	22.0996
2.2918	22.1362
2.2908	22.1531
2.2898	22.1643
2.2888	22.1887
2.2878	22.2295
2.2868	22.2351
2.2858	22.2633
2.2848	22.3160
2.2838	22.3514
2.2828	22.3694
2.2818	22.3879
2.2808	22.4127
2.2798	22.4357
2.2787	22.4221
2.2777	22.4057
2.2767	22.4174
2.2757	22.4160
2.2747	22.3755
2.2738	22.3547
2.2728	22.3356
2.2718	22.3223
2.2708	22.3434
2.2698	22.3425
2.2688	22.3270
2.2678	22.3303
2.2668	22.4165
2.2658	22.4168
2.2648	22.4194
2.2638	22.4353
2.2628	22.3813
2.2618	22.3696
2.2609	22.3757
2.2599	22.3589
2.2589	22.3893
2.2579	22.4638
2.2569	22.4986
2.2559	22.4155
2.2550	22.3256
2.2540	22.3958
2.2530	22.4620
2.2520	22.4301
2.2510	22.3096
2.2501	22.3176
2.2491	22.3708
2.2481	22.3539
2.2471	22.3640
2.2462	22.3668
2.2452	22.3908
2.2442	22.3555
2.2433	22.3228
2.2423	22.3809
2.2413	22.4118
2.2403	22.3694
2.2394	22.3963
2.2384	22.4704
2.2374	22.4540
2.2365	22.4460
2.2355	22.4165
2.2345	22.4277
2.2336	22.4249
2.2326	22.3912
2.2317	22.3677
2.2307	22.3279
2.2297	22.2916
2.2288	22.2778
2.2278	22.2163
2.2269	22.1864
2.2259	22.1934
2.2250	22.1672
2.2240	22.1252
2.2231	22.1139
2.2221	22.0987
2.2211	22.0968
2.2202	22.0378
2.2192	21.9923
2.2183	21.9735
2.2173	21.9768
2.2164	21.9501
2.2155	21.9688
2.2145	22.0174
2.2136	21.9534
2.2126	21.8742
2.2117	21.8404
2.2107	21.7724
2.2098	21.6449
2.2088	21.6009
2.2079	21.6112
2.2070	21.5589
2.2060	21.5371
2.2051	21.5339
2.2041	21.5643
2.2032	21.6337
2.2023	21.6740
2.2013	21.5672
2.2004	21.5226
2.1995	21.6150
2.1985	21.6997
2.1976	21.7621
2.1967	21.7996
2.1957	21.8413
2.1948	21.9036
2.1939	21.9379
2.1930	21.9773
2.1920	22.0762
2.1911	22.1578
2.1902	22.1859
2.1893	22.1791
2.1883	22.2163
2.1874	22.2822
2.1865	22.2604
2.1856	22.2447
2.1846	22.2672
2.1837	22.2300
2.1828	22.2112
2.1819	22.2745
2.1810	22.3706
2.1800	22.3480
2.1791	22.3452
2.1782	22.4350
2.1773	22.4311
2.1764	22.4197
2.1755	22.5158
2.1746	22.6846
2.1736	22.7470
2.1727	22.7207
2.1718	22.8225
2.1709	22.9068
2.1700	22.9204
2.1691	22.9640
2.1682	23.0226
2.1673	23.0376
2.1664	22.9451
2.1655	22.9464
2.1646	23.0043
2.1637	22.9387
2.1628	22.8925
2.1619	22.8989
2.1610	22.8562
2.1601	22.8417
2.1592	22.8098
2.1583	22.7957
2.1574	22.7815
2.1565	22.8145
2.1556	22.8492
2.1547	22.8787
2.1538	22.9241
2.1529	23.0100
2.1520	23.0202
2.1511	23.0763
2.1502	23.1942
2.1493	23.2387
2.1484	23.2602
2.1475	23.3127
2.1466	23.3436
2.1458	23.3667
2.1449	23.3273
2.1440	23.3226
2.1431	23.4065
2.1422	23.3823
2.1413	23.2875
2.1404	23.2996
2.1396	23.2597
2.1387	23.1745
2.1378	23.0802
2.1369	23.0676
2.1360	23.1431
2.1352	23.0821
2.1343	22.9635
2.1334	22.9692
2.1325	23.0615
2.1316	23.0636
2.1308	23.1464
2.1299	23.2312
2.1290	23.2762
2.1281	23.3770
2.1273	23.4482
2.1264	23.4778
2.1255	23.5570
2.1247	23.5415
2.1238	23.5560
2.1229	23.6062
2.1220	23.5950
2.1212	23.5813
2.1203	23.5082
2.1194	23.4444
2.1186	23.4088
2.1177	23.3282
2.1168	23.2326
2.1160	23.1712
2.1151	23.1075
2.1143	23.0465
2.1134	23.0498
2.1125	23.0348
2.1117	23.0057
2.1108	23.0446
2.1100	23.1056
2.1091	23.1815
2.1082	23.2631
2.1074	23.3226
2.1065	23.3601
2.1057	23.4586
2.1048	23.5115
2.1040	23.5933
2.1031	23.6418
2.1023	23.6516
2.1014	23.6634
2.1005	23.6911
2.0997	23.6418
2.0988	23.5355
2.0980	23.4511
2.0971	23.4314
2.0963	23.4004
2.0955	23.2757
2.0946	23.2331
2.0938	23.2251
2.0929	23.1994
2.0921	23.0882
2.0912	22.9926
2.0904	23.0446
2.0895	23.1675
2.0887	23.2012
2.0879	23.2054
2.0870	23.2241
2.0862	23.2448
2.0853	23.3441
2.0845	23.5223
2.0837	23.5973
2.0828	23.6615
2.0820	23.7355
2.0812	23.7280
2.0803	23.6934
2.0795	23.6817
2.0760	23.6882
2.0720	23.7397
2.0680	23.5805
2.0640	23.6066
2.0600	23.5941
2.0560	23.5644
2.0520	23.6157
2.0480	23.6686
2.0440	23.6438
2.0400	23.5798
2.0360	23.5349
2.0320	23.4325
2.0280	23.3354
2.0240	23.3494
2.0200	23.2459
2.0160	23.1240
2.0120	23.0599
2.0080	23.0786
2.0040	23.1615
2.0000	22.9858
1.9960	22.9721
1.9920	22.8739
1.9880	22.7032
1.9840	22.6444
1.9800	22.5970
1.9760	22.5949
1.9720	22.3756
1.9680	22.1741
1.9640	22.2576
1.9600	22.2374
1.9560	22.0972
1.9520	22.0269
1.9480	21.8259
1.9440	21.7810
1.9400	21.7253
1.9360	21.7327
1.9320	21.7341
1.9280	21.5993
1.9240	21.5880
1.9200	21.6886
1.9160	21.6982
1.9120	21.6108
1.9080	21.8072
1.9040	21.9028
1.9000	21.9526
1.8960	22.1910
1.8920	22.5883
1.8880	22.9175
1.8840	23.3193
1.8800	23.7015
1.8760	23.8774
1.8720	24.0779
1.8680	24.2257
1.8640	24.4338
1.8600	24.4808
1.8560	24.6123
1.8520	24.5428
1.8480	24.6424
1.8440	24.7998
1.8400	24.8333
1.8360	24.6667
1.8320	24.6100
1.8280	24.7845
1.8240	24.8781
1.8200	24.7853
1.8160	24.8511
1.8120	24.9052
1.8080	24.8769
1.8040	24.8025
1.8000	24.8494
1.7960	24.8536
1.7920	24.8819
1.7880	24.8703
1.7840	24.9434
1.7800	24.8072
1.7760	24.8213
1.7720	24.8614
1.7680	24.8827
1.7640	24.8521
1.7600	24.8167
1.7560	24.8901
1.7520	25.0052
1.7480	24.9061
1.7440	25.1904
1.7400	24.9978
1.7360	25.1630
1.7320	24.9692
1.7280	24.8548
1.7240	24.9825
1.7200	25.0058
1.7160	24.9507
1.7120	25.1182
1.7080	25.1597
1.7040	25.2512
1.7000	25.2154
1.6960	25.0227
1.6920	25.0354
1.6880	24.9541
1.6840	25.0967
1.6800	25.1539
1.6760	25.2600
1.6720	25.1022
1.6680	25.1325
1.6640	25.2100
1.6600	25.1210
1.6560	25.1829
1.6520	25.1050
1.6480	25.0576
1.6440	25.2113
1.6400	25.2701
1.6360	25.4372
1.6320	25.3758
1.6280	25.3102
1.6240	25.3102
1.6200	25.3539
1.6160	25.3010
1.6120	25.5165
1.6080	25.4503
1.6040	25.5645
1.6000	25.4218
1.5960	25.3697
1.5920	25.4587
1.5880	25.3197
1.5840	25.3591
1.5800	25.4165
1.5760	25.4942
1.5720	25.4703
1.5680	25.3342
1.5640	25.3839
1.5600	25.3228
1.5560	25.3280
1.5520	25.4258
1.5480	25.3488
1.5440	25.3434
1.5400	25.2730
1.5360	25.2418
1.5320	25.2593
1.5280	25.2802
1.5240	25.3196
1.5200	25.4471
1.5160	25.4449
1.5120	25.3196
1.5080	25.3478
1.5040	25.2550
1.5000	25.1692
1.4960	25.1457
1.4920	25.2030
1.4880	25.2602
1.4840	25.3128
1.4800	25.1783
1.4760	25.2221
1.4720	25.1184
1.4680	25.0485
1.4640	25.0966
1.4600	25.0887
1.4560	25.0815
1.4520	25.1111
1.4480	24.9883
1.4440	25.0918
1.4400	25.1238
1.4360	25.0726
1.4320	25.1084
1.4280	25.2645
1.4240	25.2037
1.4200	25.1196
1.4160	24.9955
1.4120	24.7914
1.4080	24.6041
1.4040	24.6312
1.4000	24.4818
1.3960	24.8191
1.3920	25.0299
1.3880	25.3744
1.3840	25.5975
1.3800	25.7987
1.3760	25.9415
1.3720	25.9361
1.3680	25.9361
1.3640	25.9519
1.3600	26.0177
1.3560	26.0177
1.3520	25.9864
1.3480	26.1734
1.3440	26.2173
1.3400	26.2030
1.3360	26.2747
1.3320	26.3435
1.3280	26.4311
1.3240	26.4388
1.3200	26.4388
1.3160	26.4311
1.3120	26.6503
1.3080	26.5824
1.3040	26.4786
1.3000	26.4151
1.2960	26.4722
1.2920	26.3903
1.2880	26.4702
1.2840	26.4792
1.2800	26.3247
1.2760	26.4652
1.2720	26.5945
1.2680	26.6216
1.2640	26.5358
1.2600	26.6961
1.2560	26.5583
1.2520	26.5470
1.2480	26.6134
1.2440	26.4887
1.2400	26.3842
1.2360	26.5598
1.2320	26.4276
1.2280	26.5526
1.2240	26.6240
1.2200	26.5719
1.2160	26.6656
1.2120	26.7054
1.2080	26.8698
1.2040	26.8747
1.2000	26.7626
1.1960	26.8306
1.1920	26.8526
1.1880	26.8903
1.1840	26.8820
1.1800	26.9999
1.1760	26.9523
1.1720	26.9365
1.1680	27.0291
1.1640	26.9696
1.1600	27.0570
1.1560	27.1179
1.1520	27.0124
1.1480	27.0515
1.1440	27.0409
1.1400	27.0888
1.1360	27.1489
1.1320	27.2379
1.1280	27.0748
1.1240	27.0670
1.1200	27.0378
1.1160	27.1846
1.1120	26.9416
1.1080	27.0314
1.1040	27.1279
1.1000	26.9736
1.0960	26.9586
1.0920	27.3093
1.0880	27.0443
1.0840	27.0477
1.0800	27.2360
1.0760	27.2968
1.0720	27.2647
1.0680	27.4335
1.0640	27.3789
1.0600	27.2394
1.0560	27.2690
1.0520	27.2475
1.0480	27.1118
1.0440	27.1260
1.0400	27.0748
1.0360	27.2810
1.0320	27.4417
1.0280	27.2780
1.0240	27.1653
1.0200	27.1378
1.0160	27.0827
1.0120	27.0337
1.0080	27.0371
1.0040	27.1558
1.0000	27.2405
0.9960	27.2814
0.9920	27.1991
0.9880	26.9958
0.9840	27.0545
0.9800	27.0858
0.9760	27.0825
0.9720	26.9851
0.9680	26.9907
0.9640	26.9958
0.9600	26.8599
0.9560	26.7017
0.9520	26.8346
0.9480	26.8644
0.9440	26.8543
0.9400	26.6440
0.9360	26.7302
0.9320	26.7061
0.9280	26.6942
0.9240	26.5964
0.9200	26.5983
0.9160	26.5184
0.9120	26.5887
0.9080	26.5607
0.9040	26.4486
0.9000	26.4911
0.8960	26.4792
0.8920	26.4149
0.8880	26.4672
0.8840	26.4916
0.8800	26.4269
0.8760	26.5151
0.8720	26.5154
0.8680	26.5151
0.8640	26.6750
0.8600	26.5977
0.8560	26.5080
0.8520	26.6783
0.8480	26.5752
0.8440	26.6451
0.8400	26.6989
0.8360	26.8729
0.8320	27.0660
0.8280	26.9813
0.8240	27.0316
0.8200	26.9270
0.8160	26.9760
0.8120	27.2776
0.8080	27.2776
0.8040	27.3347
0.8000	27.3422
0.7990	27.5376
0.7980	27.5360
0.7970	27.6461
0.7960	27.5763
0.7950	27.5128
0.7940	27.5918
0.7930	27.5663
0.7920	27.6721
0.7910	27.6556
0.7900	27.7858
0.7890	27.6683
0.7880	27.4948
0.7870	27.4295
0.7860	27.4199
0.7850	27.6630
0.7840	27.3952
0.7830	27.5224
0.7820	27.4845
0.7810	27.5189
0.7800	27.5482
0.7790	27.7322
0.7780	27.7895
0.7770	27.6063
0.7760	27.5354
0.7750	27.4534
0.7740	27.3341
0.7730	27.6542
0.7720	27.5906
0.7710	27.4812
0.7700	27.5179
0.7690	27.6543
0.7680	27.9015
0.7670	27.9967
0.7660	27.6905
0.7650	27.6905
0.7640	27.4575
0.7630	27.5953
0.7620	27.5147
0.7610	27.4666
0.7600	27.7180
0.7590	27.7395
0.7580	27.5293
0.7570	27.8290
0.7560	27.7942
0.7550	27.6680
0.7540	27.5271
0.7530	27.6499
0.7520	27.5312
0.7510	27.3894
0.7500	27.3316
0.7490	27.1052
0.7480	27.2654
0.7470	27.3930
0.7460	27.5218
0.7450	27.3557
0.7440	27.4745
0.7430	27.4509
0.7420	26.9943
0.7410	27.3390
0.7400	27.3850
0.7390	27.3014
0.7380	27.3606
0.7370	27.3972
0.7360	27.2895
0.7350	27.1544
0.7340	27.2632
0.7330	27.2727
0.7320	27.1746
0.7310	27.1194
0.7300	27.1640
0.7290	27.1807
0.7280	27.1622
0.7270	27.1983
0.7260	27.2632
0.7250	27.0603
0.7240	26.9952
0.7230	27.0087
0.7220	26.6524
0.7210	26.7775
0.7200	26.7840
0.7190	26.7738
0.7180	26.6132
0.7170	26.5532
0.7160	26.7840
0.7150	26.6107
0.7140	26.4492
0.7130	26.4919
0.7120	26.4213
0.7110	26.4904
0.7100	26.4947
0.7090	26.5942
0.7080	26.5035
0.7070	26.3654
0.7060	26.3905
0.7050	26.2563
0.7040	26.2660
0.7030	26.1225
0.7020	26.1309
0.7010	26.1850
0.7000	26.1321
0.6990	26.1947
0.6980	26.0305
0.6970	26.0016
0.6960	26.0326
0.6950	25.9640
0.6940	26.0862
0.6930	26.1417
0.6920	26.0093
0.6910	26.0631
0.6900	26.0365
0.6890	25.9194
0.6880	26.0194
0.6870	25.8235
0.6860	25.8953
0.6850	26.0491
0.6840	25.8332
0.6830	25.8130
0.6820	25.7347
0.6810	25.5096
0.6800	25.7347
0.6790	25.6906
0.6780	25.6501
0.6770	25.5003
0.6760	25.6255
0.6750	25.4400
0.6740	25.2240
0.6730	25.3681
0.6720	25.4549
0.6710	25.5918
0.6700	25.3500
0.6690	25.2969
0.6680	25.1251
0.6670	25.2159
0.6660	25.1130
0.6650	25.0816
0.6640	25.0509
0.6630	25.2193
0.6620	25.0937
0.6610	24.9338
0.6600	25.0315
0.6590	25.0127
0.6580	25.0387
0.6570	24.9972
0.6560	24.7486
0.6550	24.6436
0.6540	24.5433
0.6530	24.7233
0.6520	24.6688
0.6510	24.7779
0.6500	24.6981
0.6490	24.5642
0.6480	24.6101
0.6470	24.6268
0.6460	24.6983
0.6450	24.5373
0.6440	24.5516
0.6430	24.5596
0.6420	24.6015
0.6410	24.4297
0.6400	24.2292
0.6390	24.2258
0.6380	24.1915
0.6370	24.1784
0.6360	24.1080
0.6350	24.1620
0.6340	24.1325
0.6330	24.0327
0.6320	24.0408
0.6310	24.0276
0.6300	23.9980
0.6290	23.9091
0.6280	24.0388
0.6270	24.0470
0.6260	23.8982
0.6250	23.9736
0.6240	23.9980
0.6230	24.0521
0.6220	24.0551
0.6210	23.9148
0.6200	23.9713
0.6190	23.8663
0.6180	23.6660
0.6170	23.6927
0.6160	23.6551
0.6150	23.7333
0.6140	23.8633
0.6130	23.6598
0.6120	23.6079
0.6110	23.6402
0.6100	23.5597
0.6090	23.5217
0.6080	23.4359
0.6070	23.4817
0.6060	23.3999
0.6050	23.3240
0.6040	23.2275
0.6030	23.1449
0.6020	23.2688
0.6010	23.0105
0.6000	23.0603
0.5990	23.1014
0.5980	23.0720
0.5970	22.8395
0.5960	23.0184
0.5950	22.9389
0.5940	22.9309
0.5930	22.7785
0.5920	22.5999
0.5910	22.6777
0.5900	22.7244
0.5890	22.5064
0.5880	22.3360
0.5870	22.3048
0.5860	22.3043
0.5850	22.3667
0.5840	22.1799
0.5830	22.0487
0.5820	21.8494
0.5810	21.8258
0.5800	21.7572
0.5790	21.6028
0.5780	21.4245
0.5770	21.4319
0.5760	21.4705
0.5750	21.3971
0.5740	21.2404
0.5730	21.1565
0.5720	21.0261
0.5710	20.9476
0.5700	20.7739
0.5690	20.5747
0.5680	20.4549
0.5670	20.4308
0.5660	20.4203
0.5650	20.3235
0.5640	20.2397
0.5630	20.2085
0.5620	20.0654
0.5610	20.0093
0.5600	19.8319
0.5590	19.8238
0.5580	19.2741
0.5570	19.2794
0.5560	19.2546
0.5550	19.3063
0.5540	19.2438
0.5530	19.0934
0.5520	19.0934
0.5510	18.8606
0.5500	18.7328
0.5490	18.8583
0.5480	18.7182
0.5470	18.5913
0.5460	18.5975
0.5450	18.4584
0.5440	18.4928
0.5430	18.4114
0.5420	18.1073
0.5410	18.1289
0.5400	18.1475
0.5390	18.0001
0.5380	18.1252
0.5370	17.9353
0.5360	17.9917
0.5350	18.0204
0.5340	17.8284
0.5330	17.7258
0.5320	17.3843
0.5310	17.6525
0.5300	17.5937
0.5290	17.6036
0.5280	17.4700
0.5270	17.3745
0.5260	17.3018
0.5250	17.4224
0.5240	17.2904
0.5230	17.2196
0.5220	17.0238
0.5210	17.0791
0.5200	17.0436
0.5190	17.1344
0.5180	17.0023
0.5170	17.0126
0.5160	16.9005
0.5150	16.8488
0.5140	16.8075
0.5130	16.8331
0.5120	16.7418
0.5110	16.6483
0.5100	16.4582
0.5090	16.5930
0.5080	16.6482
0.5070	16.7582
0.5060	16.5141
0.5050	16.6021
0.5040	16.5909
0.5030	16.4936
0.5020	16.4315
0.5010	16.2434
0.5000	16.3535
0.4990	16.3326
0.4980	16.2327
0.4970	16.2765
0.4960	16.3509
0.4950	16.2673
0.4940	16.1181
0.4930	16.1367
0.4920	16.0595
0.4910	16.0031
0.4900	15.9414
0.4890	16.1051
0.4880	16.0736
0.4870	15.9613
0.4860	16.0561
0.4850	15.8211
0.4840	15.8146
0.4830	15.6683
0.4820	15.5744
0.4810	15.6179
0.4800	15.4524
0.4790	15.4484
0.4780	15.5994
0.4770	15.4055
0.4760	15.4385
0.4750	15.4475
0.4740	15.4682
0.4730	15.6045
0.4720	15.5709
0.4710	15.3507
0.4700	15.4136
0.4690	15.3108
0.4680	15.2627
0.4670	15.4434
0.4660	15.3661
0.4650	15.2149
0.4640	15.2624
0.4630	15.3689
0.4620	15.3447
0.4610	15.1255
0.4600	15.1832
0.4590	14.9064
0.4580	14.9706
0.4570	14.8524
0.4560	14.9266
0.4550	14.7676
0.4540	14.8616
0.4530	14.7072
0.4520	14.8617
0.4510	14.7383
0.4500	14.5389
0.4490	14.6039
0.4480	14.6059
0.4470	14.5640
0.4460	14.5264
0.4450	14.5432
0.4440	14.5947
0.4430	14.4264
0.4420	14.3625
0.4410	14.0725
0.4400	14.0987
0.4390	14.0536
0.4380	14.2011
0.4370	14.2182
0.4360	14.2422
0.4350	14.1593
0.4340	14.2583
0.4330	14.1593
0.4320	13.8388
0.4310	13.7262
0.4300	13.7262
0.4290	13.6144
0.4280	13.5919
0.4270	13.6370
0.4260	13.7171
0.4250	13.7054
0.4240	13.8576
0.4230	13.5406
0.4220	13.2759
0.4210	12.8927
0.4200	12.9637
0.4190	13.0856
0.4180	12.8651
0.4170	12.9507
0.4160	12.8681
0.4150	12.9330
0.4140	12.9530
0.4130	12.8430
0.4120	13.0270
0.4110	12.8168
0.4100	12.8200
0.4090	12.6201
0.4080	12.5830
0.4070	12.6771
0.4060	12.5890
0.4050	12.4751
0.4040	12.5908
0.4030	12.3889
0.4020	12.5133
0.4010	12.4458
0.4000	12.3253
	
