Name: Alkalic Granite
Type: Rocks
Class: Igneous
Subclass: Felsic
Particle Size: Solid
Sample No.: Granite.H1
Owner: JHU
Wavelength range: All
Origin: From Quincy, Norfolk, Massachusetts via Ward's Scientific (Cat. 
No. W-4)
Description: A gray, medium- to coarse-grained rock composed of quartz, 
feldspar, and a mafic mineral.




Measurement: Directional (10 degree) hemispherical reflectance
First Column: X
Second Column: Y
X Units: Wavelength (micrometers)
Y Units: Reflectance (percent)
First X Value: 14.0112
Last X Value: 0.4000
Number of X Values: 2844
Additional information: granit1a.txt

14.0112	7.2712
13.9734	7.4325
13.9359	6.8484
13.8985	5.8181
13.8614	6.3610
13.8244	7.2956
13.7876	7.3312
13.7511	7.3725
13.7147	6.7969
13.6785	5.4974
13.6425	5.3015
13.6067	5.0348
13.5711	4.7963
13.5356	5.1150
13.5004	5.5237
13.4653	5.7543
13.4304	5.5462
13.3957	5.2453
13.3612	5.3405
13.3269	5.7108
13.2927	5.5500
13.2587	5.5252
13.2249	5.4478
13.1912	5.7977
13.1577	6.5109
13.1244	6.4277
13.0913	6.5393
13.0583	6.8437
13.0255	6.9628
12.9929	6.9612
12.9604	7.2314
12.9281	7.7608
12.8959	8.0564
12.8639	8.1278
12.8321	8.1654
12.8004	8.1778
12.7688	8.3371
12.7375	7.9566
12.7063	7.2300
12.6752	6.7083
12.6443	6.1566
12.6135	6.0811
12.5829	6.5946
12.5524	7.0865
12.5221	7.4116
12.4919	7.6434
12.4619	7.5304
12.4320	6.9623
12.4023	5.9672
12.3727	4.7745
12.3432	3.8055
12.3139	3.2107
12.2847	2.9629
12.2557	2.9917
12.2268	3.2397
12.1980	3.4425
12.1694	3.5184
12.1409	3.7359
12.1125	3.9244
12.0843	3.9743
12.0562	4.0294
12.0282	4.1243
12.0003	4.2724
11.9726	4.3995
11.9450	4.4602
11.9176	4.6420
11.8903	4.8023
11.8631	4.8199
11.8360	4.8878
11.8090	5.0213
11.7822	5.0845
11.7555	5.1492
11.7289	5.2645
11.7024	5.3011
11.6760	5.3330
11.6498	5.3939
11.6237	5.4782
11.5977	5.5036
11.5718	5.5688
11.5460	5.6986
11.5203	5.8746
11.4948	5.9594
11.4694	5.9309
11.4440	6.0002
11.4188	6.0907
11.3937	6.1425
11.3688	6.1725
11.3439	6.2133
11.3191	6.3077
11.2944	6.4151
11.2699	6.4906
11.2455	6.5376
11.2211	6.5885
11.1969	6.7378
11.1727	6.8095
11.1487	6.8257
11.1248	6.8880
11.1010	6.9706
11.0773	7.0151
11.0536	7.1116
11.0301	7.2433
11.0067	7.3259
10.9834	7.3924
10.9602	7.4585
10.9370	7.5494
10.9140	7.6563
10.8911	7.7761
10.8682	7.8914
10.8455	8.0025
10.8229	8.0628
10.8003	8.1567
10.7779	8.2999
10.7555	8.4016
10.7332	8.5254
10.7111	8.6913
10.6890	8.8582
10.6670	8.9652
10.6451	9.1062
10.6233	9.1966
10.6015	9.2997
10.5799	9.4692
10.5584	9.6347
10.5369	9.8194
10.5155	9.9607
10.4942	10.0877
10.4730	10.2677
10.4519	10.4194
10.4309	10.5883
10.4099	10.7531
10.3891	10.9680
10.3683	11.2256
10.3476	11.4693
10.3270	11.7039
10.3065	11.9833
10.2860	12.2636
10.2656	12.5798
10.2454	12.9506
10.2251	13.3987
10.2050	13.7681
10.1850	14.0641
10.1650	14.4958
10.1451	14.9748
10.1253	15.4171
10.1056	15.8807
10.0859	16.3333
10.0663	16.7584
10.0468	17.1937
10.0274	17.6179
10.0080	18.0890
9.9887	18.5695
9.9695	19.0345
9.9504	19.4852
9.9313	19.8733
9.9123	20.2164
9.8934	20.4900
9.8746	20.6514
9.8558	20.6395
9.8371	20.4651
9.8185	20.2958
9.7999	20.2010
9.7814	20.1878
9.7630	20.2820
9.7447	20.4947
9.7264	20.6418
9.7082	20.8015
9.6900	21.1633
9.6719	21.5418
9.6539	21.7708
9.6360	22.0413
9.6181	22.2974
9.6003	22.5407
9.5825	22.7796
9.5649	22.9690
9.5472	23.0571
9.5297	23.1229
9.5122	23.2692
9.4948	23.5119
9.4774	23.7979
9.4601	24.0852
9.4429	24.3428
9.4257	24.5843
9.4086	25.0256
9.3916	25.7554
9.3746	26.6748
9.3577	27.5868
9.3408	28.4067
9.3240	29.0763
9.3073	29.5975
9.2906	29.9718
9.2740	30.2462
9.2574	30.4162
9.2409	30.4778
9.2245	30.5336
9.2081	30.5591
9.1918	30.4166
9.1755	30.1527
9.1593	29.9004
9.1431	29.5851
9.1270	29.1568
9.1110	28.6956
9.0950	28.3051
9.0791	27.9116
9.0632	27.5121
9.0474	27.1591
9.0316	26.8350
9.0159	26.6123
9.0003	26.5019
8.9847	26.4888
8.9691	26.6001
8.9536	26.8225
8.9382	27.0527
8.9228	27.2943
8.9075	27.5399
8.8922	27.7952
8.8770	28.0518
8.8618	28.2874
8.8467	28.4319
8.8316	28.5248
8.8166	28.5548
8.8016	28.5355
8.7867	28.4917
8.7718	28.4282
8.7570	28.3537
8.7422	28.3314
8.7275	28.2285
8.7129	28.0391
8.6982	27.7064
8.6837	27.1241
8.6692	26.2061
8.6547	24.8308
8.6403	23.3451
8.6259	22.6921
8.6116	23.4363
8.5973	24.9093
8.5830	26.2190
8.5688	27.0609
8.5547	27.5125
8.5406	27.7380
8.5266	27.8345
8.5126	27.8558
8.4986	27.8160
8.4847	27.7563
8.4708	27.6677
8.4570	27.5315
8.4432	27.3939
8.4295	27.2678
8.4158	27.1082
8.4022	26.9170
8.3886	26.6669
8.3750	26.4147
8.3615	26.0851
8.3481	25.7025
8.3347	25.3035
8.3213	24.8672
8.3079	24.4101
8.2946	23.9484
8.2814	23.4712
8.2682	22.9937
8.2550	22.5100
8.2419	22.0539
8.2288	21.5721
8.2158	21.0225
8.2028	20.4234
8.1898	19.7493
8.1769	18.9794
8.1640	18.0825
8.1512	17.0400
8.1384	15.9182
8.1256	14.7550
8.1129	13.5823
8.1002	12.4701
8.0876	11.4433
8.0750	10.4753
8.0624	9.6026
8.0499	8.8026
8.0374	8.0939
8.0250	7.4334
8.0126	6.7938
8.0002	6.2217
7.9879	5.7330
7.9756	5.2556
7.9634	4.7756
7.9512	4.3282
7.9390	3.9340
7.9268	3.5963
7.9147	3.3122
7.9027	3.0644
7.8906	2.8207
7.8786	2.5823
7.8667	2.4110
7.8548	2.2437
7.8429	2.1033
7.8310	1.9847
7.8192	1.8642
7.8075	1.7709
7.7957	1.7032
7.7840	1.6254
7.7723	1.5426
7.7607	1.4772
7.7491	1.4236
7.7375	1.3504
7.7260	1.2727
7.7145	1.2195
7.7031	1.1916
7.6916	1.1465
7.6802	1.0865
7.6689	1.0317
7.6575	0.9870
7.6462	0.9682
7.6350	0.9413
7.6238	0.9174
7.6126	0.9140
7.6014	0.9176
7.5903	0.8841
7.5792	0.8482
7.5681	0.8506
7.5571	0.8506
7.5461	0.8330
7.5351	0.8198
7.5242	0.8177
7.5133	0.8096
7.5024	0.7957
7.4916	0.7852
7.4807	0.7777
7.4700	0.7863
7.4592	0.7997
7.4485	0.8100
7.4378	0.8055
7.4272	0.7875
7.4165	0.8091
7.4059	0.8231
7.3954	0.8203
7.3848	0.8431
7.3743	0.8606
7.3639	0.8608
7.3534	0.8491
7.3430	0.8499
7.3326	0.8700
7.3223	0.8644
7.3119	0.8700
7.3016	0.8855
7.2914	0.9023
7.2811	0.8937
7.2709	0.9060
7.2607	0.9220
7.2506	0.9182
7.2404	0.9347
7.2303	0.9530
7.2203	0.9628
7.2102	0.9678
7.2002	0.9745
7.1902	1.0064
7.1803	1.0164
7.1703	1.0423
7.1604	1.0545
7.1506	1.0528
7.1407	1.0624
7.1309	1.0714
7.1211	1.0932
7.1113	1.1172
7.1016	1.1142
7.0919	1.1395
7.0822	1.1489
7.0725	1.1444
7.0629	1.1510
7.0533	1.1738
7.0437	1.1935
7.0341	1.2047
7.0246	1.2197
7.0151	1.2296
7.0056	1.2132
6.9962	1.2185
6.9867	1.2403
6.9773	1.2436
6.9679	1.2593
6.9586	1.2855
6.9493	1.2949
6.9400	1.3067
6.9307	1.3200
6.9214	1.3188
6.9122	1.3064
6.9030	1.3286
6.8938	1.3579
6.8847	1.3525
6.8755	1.3428
6.8664	1.3732
6.8573	1.4011
6.8483	1.4055
6.8393	1.3982
6.8302	1.4198
6.8213	1.4273
6.8123	1.4280
6.8034	1.4337
6.7944	1.4239
6.7855	1.4236
6.7767	1.4325
6.7678	1.4421
6.7590	1.4712
6.7502	1.4813
6.7414	1.4733
6.7327	1.4709
6.7239	1.4927
6.7152	1.5298
6.7065	1.5488
6.6979	1.5450
6.6892	1.5541
6.6806	1.5483
6.6720	1.5516
6.6634	1.5769
6.6549	1.5930
6.6464	1.5907
6.6378	1.6068
6.6294	1.5989
6.6209	1.5860
6.6124	1.6045
6.6040	1.6125
6.5956	1.6118
6.5872	1.6200
6.5789	1.6329
6.5705	1.6453
6.5622	1.6667
6.5539	1.6737
6.5456	1.6735
6.5374	1.6831
6.5292	1.6922
6.5209	1.7121
6.5128	1.7096
6.5046	1.6997
6.4964	1.7088
6.4883	1.7278
6.4802	1.7670
6.4721	1.7646
6.4640	1.7414
6.4560	1.7522
6.4480	1.7768
6.4399	1.7714
6.4320	1.7486
6.4240	1.7714
6.4160	1.8145
6.4081	1.8202
6.4002	1.8065
6.3923	1.8228
6.3844	1.8096
6.3766	1.8082
6.3687	1.8155
6.3609	1.8080
6.3531	1.8185
6.3454	1.8330
6.3376	1.8347
6.3299	1.8132
6.3221	1.7904
6.3144	1.8031
6.3068	1.7963
6.2991	1.7925
6.2914	1.8033
6.2838	1.8244
6.2762	1.8278
6.2686	1.8106
6.2611	1.8089
6.2535	1.8178
6.2460	1.8239
6.2385	1.8089
6.2310	1.7939
6.2235	1.8143
6.2160	1.8276
6.2086	1.8197
6.2011	1.8112
6.1937	1.8251
6.1863	1.8389
6.1790	1.8375
6.1716	1.8569
6.1643	1.8639
6.1570	1.8636
6.1496	1.8828
6.1424	1.8925
6.1351	1.9073
6.1278	1.9657
6.1206	1.9891
6.1134	1.9716
6.1062	1.9504
6.0990	1.9568
6.0918	1.9763
6.0847	1.9826
6.0776	1.9896
6.0704	2.0002
6.0633	1.9966
6.0563	2.0037
6.0492	2.0343
6.0421	2.0285
6.0351	2.0156
6.0281	2.0072
6.0211	2.0179
6.0141	2.0215
6.0071	2.0147
6.0002	2.0255
5.9932	2.0538
5.9863	2.0538
5.9794	2.0543
5.9725	2.0566
5.9657	2.0506
5.9588	2.0524
5.9520	2.0465
5.9451	2.0395
5.9383	2.0608
5.9315	2.0733
5.9247	2.0637
5.9180	2.0592
5.9112	2.0707
5.9045	2.0847
5.8978	2.1091
5.8911	2.1063
5.8844	2.1174
5.8777	2.1480
5.8711	2.1694
5.8644	2.1776
5.8578	2.1849
5.8512	2.1883
5.8446	2.1982
5.8380	2.2059
5.8314	2.2322
5.8249	2.2540
5.8184	2.2572
5.8118	2.2475
5.8053	2.2444
5.7988	2.2547
5.7923	2.2863
5.7859	2.2884
5.7794	2.2903
5.7730	2.2903
5.7666	2.3163
5.7602	2.3205
5.7538	2.3124
5.7474	2.3142
5.7410	2.3379
5.7347	2.3486
5.7283	2.3522
5.7220	2.3494
5.7157	2.3620
5.7094	2.3796
5.7031	2.3766
5.6969	2.3597
5.6906	2.3489
5.6844	2.3540
5.6782	2.3820
5.6719	2.3979
5.6657	2.3932
5.6596	2.3914
5.6534	2.3943
5.6472	2.3963
5.6411	2.3935
5.6349	2.3787
5.6288	2.3892
5.6227	2.3981
5.6166	2.3935
5.6106	2.3963
5.6045	2.4068
5.5984	2.3986
5.5924	2.3922
5.5864	2.4161
5.5804	2.4420
5.5744	2.4413
5.5684	2.4330
5.5624	2.4288
5.5564	2.4366
5.5505	2.4525
5.5445	2.4694
5.5386	2.4857
5.5327	2.4954
5.5268	2.5013
5.5209	2.5184
5.5151	2.5411
5.5092	2.5500
5.5033	2.5594
5.4975	2.5807
5.4917	2.5971
5.4859	2.6221
5.4801	2.6400
5.4743	2.6414
5.4685	2.6714
5.4628	2.6873
5.4570	2.6675
5.4513	2.6784
5.4455	2.6897
5.4398	2.6836
5.4341	2.6784
5.4284	2.7002
5.4228	2.7082
5.4171	2.7014
5.4114	2.7155
5.4058	2.7197
5.4002	2.7257
5.3945	2.7260
5.3889	2.7220
5.3833	2.7049
5.3778	2.6920
5.3722	2.7145
5.3666	2.7328
5.3611	2.7384
5.3555	2.7283
5.3500	2.7304
5.3445	2.7296
5.3390	2.7251
5.3335	2.7372
5.3280	2.7499
5.3225	2.7408
5.3171	2.7405
5.3116	2.7597
5.3062	2.7804
5.3008	2.7703
5.2954	2.7665
5.2900	2.7998
5.2846	2.8223
5.2792	2.8088
5.2738	2.7947
5.2684	2.8073
5.2631	2.8298
5.2578	2.8535
5.2524	2.8638
5.2471	2.8502
5.2418	2.8638
5.2365	2.8816
5.2312	2.8969
5.2260	2.9121
5.2207	2.9290
5.2154	2.9447
5.2102	2.9688
5.2050	2.9768
5.1998	2.9948
5.1945	3.0275
5.1893	3.0234
5.1842	3.0405
5.1790	3.0633
5.1738	3.0644
5.1686	3.0675
5.1635	3.0954
5.1584	3.1096
5.1532	3.1073
5.1481	3.1043
5.1430	3.1094
5.1379	3.1233
5.1328	3.1260
5.1277	3.1504
5.1227	3.1722
5.1176	3.1912
5.1126	3.2166
5.1075	3.2330
5.1025	3.2459
5.0975	3.2611
5.0925	3.2592
5.0875	3.2670
5.0825	3.2721
5.0775	3.2922
5.0726	3.2932
5.0676	3.2772
5.0627	3.2771
5.0577	3.2745
5.0528	3.2771
5.0479	3.3065
5.0430	3.3249
5.0380	3.3300
5.0332	3.3421
5.0283	3.3504
5.0234	3.3564
5.0185	3.3703
5.0137	3.3811
5.0088	3.3893
5.0040	3.3841
4.9992	3.3971
4.9944	3.4181
4.9896	3.4308
4.9848	3.4289
4.9800	3.4451
4.9752	3.4676
4.9704	3.4927
4.9657	3.5154
4.9609	3.5395
4.9562	3.5506
4.9514	3.5501
4.9467	3.5536
4.9420	3.5716
4.9373	3.5943
4.9326	3.6070
4.9279	3.6232
4.9232	3.6208
4.9186	3.6228
4.9139	3.6309
4.9092	3.6485
4.9046	3.6764
4.9000	3.7057
4.8953	3.7306
4.8907	3.7690
4.8861	3.8096
4.8815	3.8367
4.8769	3.8904
4.8723	3.9182
4.8678	3.9485
4.8632	3.9893
4.8586	4.0333
4.8541	4.0772
4.8495	4.0795
4.8450	4.0974
4.8405	4.1325
4.8360	4.1702
4.8315	4.1930
4.8270	4.1990
4.8225	4.2075
4.8180	4.2042
4.8135	4.2082
4.8090	4.2405
4.8046	4.2511
4.8001	4.2447
4.7957	4.2517
4.7913	4.2579
4.7868	4.2732
4.7824	4.2994
4.7780	4.3226
4.7736	4.3408
4.7692	4.3378
4.7648	4.3561
4.7605	4.3896
4.7561	4.4208
4.7517	4.4395
4.7474	4.4436
4.7431	4.4595
4.7387	4.4894
4.7344	4.5080
4.7301	4.5140
4.7258	4.5140
4.7215	4.5267
4.7172	4.5457
4.7129	4.5316
4.7086	4.5153
4.7043	4.5232
4.7000	4.4946
4.6958	4.4550
4.6915	4.4636
4.6873	4.4522
4.6831	4.4304
4.6788	4.4275
4.6746	4.4484
4.6704	4.4800
4.6662	4.5204
4.6620	4.5450
4.6578	4.5738
4.6536	4.6186
4.6495	4.6610
4.6453	4.6912
4.6411	4.7311
4.6370	4.7794
4.6328	4.8166
4.6287	4.8389
4.6246	4.8977
4.6205	4.9462
4.6163	4.9600
4.6122	4.9652
4.6081	4.9805
4.6040	5.0393
4.6000	5.1054
4.5959	5.1349
4.5918	5.1204
4.5877	5.1251
4.5837	5.1281
4.5796	5.1475
4.5756	5.1755
4.5716	5.1756
4.5675	5.2059
4.5635	5.2476
4.5595	5.2432
4.5555	5.2306
4.5515	5.2535
4.5475	5.2690
4.5435	5.2571
4.5395	5.2512
4.5356	5.2359
4.5316	5.2205
4.5276	5.2148
4.5237	5.2122
4.5197	5.2008
4.5158	5.1804
4.5119	5.1670
4.5080	5.1631
4.5040	5.1309
4.5001	5.1156
4.4962	5.1340
4.4923	5.1420
4.4884	5.1553
4.4846	5.1506
4.4807	5.1450
4.4768	5.1727
4.4730	5.1963
4.4691	5.1912
4.4652	5.2237
4.4614	5.2711
4.4576	5.2743
4.4537	5.3102
4.4499	5.3646
4.4461	5.3810
4.4423	5.3920
4.4385	5.4257
4.4347	5.4530
4.4309	5.4534
4.4271	5.4761
4.4233	5.5218
4.4196	5.5671
4.4158	5.6070
4.4120	5.6311
4.4083	5.6629
4.4045	5.6986
4.4008	5.7371
4.3971	5.7639
4.3934	5.8003
4.3896	5.8364
4.3859	5.8626
4.3822	5.9166
4.3785	5.9704
4.3748	6.0138
4.3711	6.0719
4.3674	6.1117
4.3638	6.1406
4.3601	6.1943
4.3564	6.2412
4.3528	6.2745
4.3491	6.3082
4.3455	6.3215
4.3418	6.3663
4.3382	6.4153
4.3346	6.4528
4.3310	6.4795
4.3273	6.5083
4.3237	6.5447
4.3201	6.5561
4.3165	6.5704
4.3129	6.6010
4.3094	6.6089
4.3058	6.6114
4.3022	6.6304
4.2986	6.6522
4.2951	6.6914
4.2915	6.6979
4.2880	6.6727
4.2844	6.7153
4.2809	6.7673
4.2774	6.7645
4.2738	6.7537
4.2703	6.7532
4.2668	6.7645
4.2633	6.8034
4.2598	6.8758
4.2563	6.9166
4.2528	6.9530
4.2493	6.9787
4.2458	6.9898
4.2424	6.9987
4.2389	7.0151
4.2354	7.0406
4.2320	7.0571
4.2285	7.0664
4.2251	7.0781
4.2216	7.1076
4.2182	7.1496
4.2148	7.1657
4.2113	7.1740
4.2079	7.1888
4.2045	7.1958
4.2011	7.2108
4.1977	7.2166
4.1943	7.2358
4.1909	7.2392
4.1875	7.2504
4.1841	7.2851
4.1808	7.3096
4.1774	7.3174
4.1740	7.3633
4.1707	7.4107
4.1673	7.4196
4.1640	7.4091
4.1606	7.4384
4.1573	7.4501
4.1540	7.4646
4.1506	7.4913
4.1473	7.4934
4.1440	7.5166
4.1407	7.5403
4.1374	7.5511
4.1341	7.5602
4.1308	7.5820
4.1275	7.5971
4.1242	7.6308
4.1209	7.6621
4.1177	7.6764
4.1144	7.6807
4.1111	7.6898
4.1079	7.7192
4.1046	7.7566
4.1014	7.7634
4.0981	7.7871
4.0949	7.8106
4.0917	7.8171
4.0884	7.8314
4.0852	7.8613
4.0820	7.8748
4.0788	7.8792
4.0756	7.8992
4.0724	7.9221
4.0692	7.9188
4.0660	7.9333
4.0628	7.9652
4.0596	7.9781
4.0565	7.9776
4.0533	7.9690
4.0501	7.9730
4.0470	7.9875
4.0438	7.9781
4.0406	7.9654
4.0375	7.9889
4.0344	8.0187
4.0312	8.0088
4.0281	8.0031
4.0250	8.0264
4.0218	8.0346
4.0187	8.0332
4.0156	8.0198
4.0125	8.0078
4.0094	8.0147
4.0063	8.0299
4.0032	8.0652
4.0001	8.0906
3.9970	8.0878
3.9940	8.1012
3.9909	8.1028
3.9878	8.1096
3.9847	8.1225
3.9817	8.1231
3.9786	8.1513
3.9756	8.1693
3.9725	8.1590
3.9695	8.1595
3.9665	8.1968
3.9634	8.2317
3.9604	8.2355
3.9574	8.2356
3.9544	8.2643
3.9513	8.2802
3.9483	8.3006
3.9453	8.2990
3.9423	8.2982
3.9393	8.3405
3.9363	8.3599
3.9333	8.3524
3.9304	8.3486
3.9274	8.3691
3.9244	8.4002
3.9214	8.4098
3.9185	8.4208
3.9155	8.4145
3.9126	8.4236
3.9096	8.4349
3.9067	8.4543
3.9037	8.4506
3.9008	8.4190
3.8979	8.4215
3.8949	8.4361
3.8920	8.4314
3.8891	8.4138
3.8862	8.4106
3.8833	8.4252
3.8804	8.4358
3.8775	8.4335
3.8746	8.4251
3.8717	8.4420
3.8688	8.4396
3.8659	8.4396
3.8630	8.4539
3.8601	8.4607
3.8573	8.4527
3.8544	8.4551
3.8515	8.4605
3.8487	8.4628
3.8458	8.4691
3.8430	8.5021
3.8401	8.5158
3.8373	8.5242
3.8344	8.5329
3.8316	8.5402
3.8288	8.5605
3.8259	8.5582
3.8231	8.5537
3.8203	8.5813
3.8175	8.6023
3.8147	8.5927
3.8119	8.6070
3.8091	8.6229
3.8063	8.6217
3.8035	8.6376
3.8007	8.6334
3.7979	8.6376
3.7951	8.6480
3.7924	8.6484
3.7896	8.6423
3.7868	8.6463
3.7841	8.6514
3.7813	8.6548
3.7785	8.6524
3.7758	8.6535
3.7730	8.6636
3.7703	8.6550
3.7676	8.6725
3.7648	8.6796
3.7621	8.6498
3.7594	8.6449
3.7566	8.6498
3.7539	8.6524
3.7512	8.6442
3.7485	8.6367
3.7458	8.6355
3.7431	8.6456
3.7404	8.6620
3.7377	8.6426
3.7350	8.6233
3.7323	8.6259
3.7296	8.6475
3.7269	8.6623
3.7242	8.6941
3.7216	8.7156
3.7189	8.7135
3.7162	8.7155
3.7136	8.7234
3.7109	8.7361
3.7083	8.7298
3.7056	8.7607
3.7030	8.7804
3.7003	8.7857
3.6977	8.7949
3.6950	8.8212
3.6924	8.8402
3.6898	8.8282
3.6872	8.8310
3.6845	8.8452
3.6819	8.8662
3.6793	8.9156
3.6767	8.9137
3.6741	8.9317
3.6715	8.9390
3.6689	8.9205
3.6663	8.9316
3.6637	8.9456
3.6611	8.9392
3.6585	8.9482
3.6560	8.9545
3.6534	8.9753
3.6508	8.9768
3.6482	8.9686
3.6457	8.9817
3.6431	9.0007
3.6406	9.0056
3.6380	8.9988
3.6355	8.9657
3.6329	8.9571
3.6304	8.9867
3.6278	8.9868
3.6253	8.9875
3.6227	8.9742
3.6202	8.9808
3.6177	8.9955
3.6152	8.9873
3.6127	8.9885
3.6101	8.9981
3.6076	9.0012
3.6051	8.9761
3.6026	8.9529
3.6001	8.9527
3.5976	8.9548
3.5951	8.9470
3.5926	8.9683
3.5901	8.9850
3.5876	8.9803
3.5852	8.9784
3.5827	8.9810
3.5802	8.9981
3.5777	8.9747
3.5753	8.9418
3.5728	8.9412
3.5704	8.9371
3.5679	8.9388
3.5654	8.9381
3.5630	8.9426
3.5605	8.9430
3.5581	8.9428
3.5557	8.9236
3.5532	8.9299
3.5508	8.9296
3.5484	8.9149
3.5459	8.9145
3.5435	8.9174
3.5411	8.8966
3.5387	8.8624
3.5363	8.8460
3.5338	8.8483
3.5314	8.8404
3.5290	8.8237
3.5266	8.7942
3.5242	8.7782
3.5218	8.7335
3.5195	8.6878
3.5171	8.6353
3.5147	8.5481
3.5123	8.4530
3.5099	8.3510
3.5075	8.2810
3.5052	8.2439
3.5028	8.2547
3.5004	8.2906
3.4981	8.3052
3.4957	8.3550
3.4934	8.4026
3.4910	8.4131
3.4887	8.4124
3.4863	8.4103
3.4840	8.4075
3.4816	8.4056
3.4793	8.4278
3.4770	8.4368
3.4746	8.4314
3.4723	8.4211
3.4700	8.4007
3.4677	8.4112
3.4653	8.4241
3.4630	8.3967
3.4607	8.3688
3.4584	8.3810
3.4561	8.3484
3.4538	8.3065
3.4515	8.2823
3.4492	8.2600
3.4469	8.2355
3.4446	8.1998
3.4423	8.1584
3.4400	8.1234
3.4378	8.0812
3.4355	8.0254
3.4332	7.9478
3.4309	7.8717
3.4287	7.7986
3.4264	7.7288
3.4241	7.6652
3.4219	7.6169
3.4196	7.6078
3.4174	7.5797
3.4151	7.5586
3.4129	7.5998
3.4106	7.6160
3.4084	7.6127
3.4061	7.6329
3.4039	7.6645
3.4017	7.7104
3.3994	7.7413
3.3972	7.7573
3.3950	7.7906
3.3928	7.7899
3.3906	7.7559
3.3883	7.7379
3.3861	7.7367
3.3839	7.7121
3.3817	7.6914
3.3795	7.6896
3.3773	7.6933
3.3751	7.7158
3.3729	7.7316
3.3707	7.7412
3.3685	7.7702
3.3663	7.7670
3.3641	7.7768
3.3620	7.8005
3.3598	7.8096
3.3576	7.8119
3.3554	7.8108
3.3533	7.7963
3.3511	7.7674
3.3489	7.7930
3.3468	7.8133
3.3446	7.8028
3.3425	7.7810
3.3403	7.7517
3.3382	7.7254
3.3360	7.7168
3.3339	7.7116
3.3317	7.6992
3.3296	7.6854
3.3274	7.6816
3.3253	7.6842
3.3232	7.6500
3.3210	7.6146
3.3189	7.6127
3.3168	7.6188
3.3147	7.6083
3.3126	7.5539
3.3104	7.5319
3.3083	7.5325
3.3062	7.5143
3.3041	7.5056
3.3020	7.4974
3.2999	7.4714
3.2978	7.4447
3.2957	7.4431
3.2936	7.4124
3.2915	7.3800
3.2894	7.3571
3.2874	7.3452
3.2853	7.3308
3.2832	7.3000
3.2811	7.2914
3.2790	7.2886
3.2770	7.2522
3.2749	7.2103
3.2728	7.1686
3.2708	7.1753
3.2687	7.1927
3.2666	7.1660
3.2646	7.1130
3.2625	7.0805
3.2605	7.0525
3.2584	7.0380
3.2564	7.0184
3.2543	7.0366
3.2523	7.0186
3.2503	6.9665
3.2482	6.9665
3.2462	6.9755
3.2442	6.9288
3.2421	6.9103
3.2401	6.9206
3.2381	6.8829
3.2361	6.8496
3.2340	6.8355
3.2320	6.8337
3.2300	6.8264
3.2280	6.8243
3.2260	6.7987
3.2240	6.7509
3.2220	6.7242
3.2200	6.6974
3.2180	6.6776
3.2160	6.6607
3.2140	6.6501
3.2120	6.6091
3.2100	6.5943
3.2080	6.6211
3.2060	6.5979
3.2040	6.5268
3.2021	6.4884
3.2001	6.4797
3.1981	6.4603
3.1961	6.4592
3.1942	6.4737
3.1922	6.4415
3.1902	6.4125
3.1883	6.4008
3.1863	6.3886
3.1844	6.3834
3.1824	6.3808
3.1805	6.3253
3.1785	6.3096
3.1766	6.3007
3.1746	6.2435
3.1727	6.2121
3.1707	6.2187
3.1688	6.1896
3.1669	6.1910
3.1649	6.2078
3.1630	6.1955
3.1611	6.1603
3.1591	6.1385
3.1572	6.1385
3.1553	6.1193
3.1534	6.0703
3.1515	6.0527
3.1495	6.0623
3.1476	6.0471
3.1457	6.0106
3.1438	5.9997
3.1419	5.9749
3.1400	5.9946
3.1381	5.9930
3.1362	5.9533
3.1343	5.9452
3.1324	5.9688
3.1305	5.9470
3.1286	5.9100
3.1268	5.9055
3.1249	5.8908
3.1230	5.8893
3.1211	5.8688
3.1192	5.8355
3.1174	5.8249
3.1155	5.8268
3.1136	5.8160
3.1117	5.8015
3.1099	5.8085
3.1080	5.7878
3.1061	5.7727
3.1043	5.7849
3.1024	5.7708
3.1006	5.7574
3.0987	5.7389
3.0969	5.7140
3.0950	5.7363
3.0932	5.7516
3.0913	5.7363
3.0895	5.7089
3.0876	5.7013
3.0858	5.7016
3.0840	5.7438
3.0821	5.7190
3.0803	5.6691
3.0785	5.6514
3.0766	5.6463
3.0748	5.6482
3.0730	5.6275
3.0712	5.6363
3.0694	5.6374
3.0675	5.5997
3.0657	5.6184
3.0639	5.6325
3.0621	5.5994
3.0603	5.5932
3.0585	5.6314
3.0567	5.6325
3.0549	5.5790
3.0531	5.5654
3.0513	5.5748
3.0495	5.5849
3.0477	5.5519
3.0459	5.5425
3.0441	5.5636
3.0423	5.5549
3.0406	5.5572
3.0388	5.5746
3.0370	5.5643
3.0352	5.5584
3.0334	5.5540
3.0317	5.5332
3.0299	5.5542
3.0281	5.5613
3.0264	5.5193
3.0246	5.4878
3.0228	5.5216
3.0211	5.5369
3.0193	5.5247
3.0176	5.5493
3.0158	5.5453
3.0140	5.5244
3.0123	5.5345
3.0105	5.5385
3.0088	5.4954
3.0070	5.5075
3.0053	5.5041
3.0036	5.4774
3.0018	5.5270
3.0001	5.5579
2.9984	5.5286
2.9966	5.4825
2.9949	5.4802
2.9932	5.4792
2.9914	5.4576
2.9897	5.4511
2.9880	5.4670
2.9863	5.4876
2.9845	5.4804
2.9828	5.4785
2.9811	5.4933
2.9794	5.4829
2.9777	5.4872
2.9760	5.4857
2.9743	5.4659
2.9726	5.4600
2.9709	5.4665
2.9692	5.4668
2.9675	5.4785
2.9658	5.4509
2.9641	5.4431
2.9624	5.4607
2.9607	5.4371
2.9590	5.4084
2.9573	5.4077
2.9556	5.4649
2.9539	5.4717
2.9523	5.4567
2.9506	5.4665
2.9489	5.4738
2.9472	5.4616
2.9455	5.4537
2.9439	5.4857
2.9422	5.4849
2.9405	5.4623
2.9389	5.4811
2.9372	5.4886
2.9355	5.4834
2.9339	5.5146
2.9322	5.5205
2.9306	5.4525
2.9289	5.4392
2.9272	5.4727
2.9256	5.4883
2.9239	5.5235
2.9223	5.5404
2.9207	5.5008
2.9190	5.5359
2.9174	5.5884
2.9157	5.5481
2.9141	5.5810
2.9124	5.5985
2.9108	5.5784
2.9092	5.5908
2.9075	5.6243
2.9059	5.5927
2.9043	5.6114
2.9027	5.6702
2.9010	5.6527
2.8994	5.6632
2.8978	5.6937
2.8962	5.7286
2.8946	5.7413
2.8929	5.7286
2.8913	5.7283
2.8897	5.6934
2.8881	5.6836
2.8865	5.7153
2.8849	5.7276
2.8833	5.7413
2.8817	5.7574
2.8801	5.7358
2.8785	5.7785
2.8769	5.8280
2.8753	5.7928
2.8737	5.8088
2.8721	5.8200
2.8705	5.8158
2.8689	5.8350
2.8673	5.8685
2.8658	5.8837
2.8642	5.8441
2.8626	5.8286
2.8610	5.8935
2.8594	5.9317
2.8579	5.9257
2.8563	5.8999
2.8547	5.8690
2.8531	5.8613
2.8516	5.8875
2.8500	5.9599
2.8484	5.9749
2.8469	5.9611
2.8453	5.9465
2.8437	5.9555
2.8422	5.9904
2.8406	5.9794
2.8391	6.0037
2.8375	6.0680
2.8360	6.0633
2.8344	6.0593
2.8329	6.0904
2.8313	6.0660
2.8298	6.0553
2.8282	6.1101
2.8267	6.1763
2.8252	6.1598
2.8236	6.1242
2.8221	6.1664
2.8205	6.2062
2.8190	6.1908
2.8175	6.1903
2.8159	6.2317
2.8144	6.2402
2.8129	6.2805
2.8114	6.2883
2.8098	6.2803
2.8083	6.3108
2.8068	6.2925
2.8053	6.3145
2.8038	6.3942
2.8022	6.4036
2.8007	6.3806
2.7992	6.4228
2.7977	6.4865
2.7962	6.5051
2.7947	6.4994
2.7932	6.5226
2.7917	6.5625
2.7902	6.5334
2.7887	6.5395
2.7872	6.6101
2.7857	6.6563
2.7842	6.6405
2.7827	6.6431
2.7812	6.6499
2.7797	6.6895
2.7782	6.7335
2.7767	6.7720
2.7752	6.8093
2.7738	6.7776
2.7723	6.7739
2.7708	6.8444
2.7693	6.8400
2.7678	6.8259
2.7664	6.8325
2.7649	6.7833
2.7634	6.7207
2.7619	6.7455
2.7605	6.8036
2.7590	6.8916
2.7575	7.0026
2.7561	7.1205
2.7546	7.2060
2.7531	7.2496
2.7517	7.2987
2.7502	7.3624
2.7488	7.4306
2.7473	7.4772
2.7458	7.5621
2.7444	7.6603
2.7429	7.7325
2.7415	7.8417
2.7400	7.9831
2.7386	8.0611
2.7371	8.0925
2.7357	8.1769
2.7343	8.3104
2.7328	8.4567
2.7314	8.5945
2.7299	8.6901
2.7285	8.7517
2.7271	8.8685
2.7256	9.0680
2.7242	9.2704
2.7228	9.3530
2.7213	9.4429
2.7199	9.6213
2.7185	9.7355
2.7171	9.8360
2.7156	9.9398
2.7142	10.0826
2.7128	10.1784
2.7114	10.3288
2.7100	10.4789
2.7085	10.5122
2.7071	10.5452
2.7057	10.6577
2.7043	10.7873
2.7029	10.8989
2.7015	11.0254
2.7001	11.1470
2.6987	11.2511
2.6973	11.3264
2.6959	11.4499
2.6945	11.5891
2.6931	11.6721
2.6917	11.6740
2.6903	11.6988
2.6889	11.7609
2.6875	11.8286
2.6861	11.9268
2.6847	11.9890
2.6833	11.9925
2.6819	11.9958
2.6805	12.0199
2.6791	12.0789
2.6778	12.1764
2.6764	12.2363
2.6750	12.1997
2.6736	12.1893
2.6722	12.2437
2.6709	12.2948
2.6695	12.3088
2.6681	12.3049
2.6667	12.4277
2.6654	12.4293
2.6640	12.3560
2.6626	12.3156
2.6613	12.3447
2.6599	12.3248
2.6585	12.2950
2.6572	12.3563
2.6558	12.3977
2.6545	12.3639
2.6531	12.3605
2.6517	12.4134
2.6504	12.4096
2.6490	12.4166
2.6477	12.4045
2.6463	12.4397
2.6450	12.4940
2.6436	12.4851
2.6423	12.4556
2.6409	12.4999
2.6396	12.5292
2.6382	12.5078
2.6369	12.4971
2.6356	12.5088
2.6342	12.5067
2.6329	12.4818
2.6315	12.5329
2.6302	12.5971
2.6289	12.5791
2.6275	12.5435
2.6262	12.5805
2.6249	12.5976
2.6236	12.5836
2.6222	12.5748
2.6209	12.6874
2.6196	12.7439
2.6183	12.7150
2.6169	12.7176
2.6156	12.6712
2.6143	12.7116
2.6130	12.7410
2.6117	12.6590
2.6103	12.6257
2.6090	12.6804
2.6077	12.6827
2.6064	12.6872
2.6051	12.7509
2.6038	12.7725
2.6025	12.7439
2.6012	12.7223
2.5999	12.7221
2.5986	12.7319
2.5973	12.7472
2.5960	12.8142
2.5947	12.9168
2.5934	12.8475
2.5921	12.7143
2.5908	12.7176
2.5895	12.7439
2.5882	12.7720
2.5869	12.7556
2.5856	12.6924
2.5843	12.7837
2.5830	12.8125
2.5817	12.7631
2.5805	12.7524
2.5792	12.7368
2.5779	12.7924
2.5766	12.8095
2.5753	12.7903
2.5741	12.8161
2.5728	12.8451
2.5715	12.7739
2.5702	12.7917
2.5690	12.8186
2.5677	12.7607
2.5664	12.7748
2.5651	12.8503
2.5639	12.8911
2.5626	12.8418
2.5613	12.8104
2.5601	12.7940
2.5588	12.7668
2.5575	12.7472
2.5563	12.8114
2.5550	12.8690
2.5538	12.8390
2.5525	12.8433
2.5513	12.8179
2.5500	12.7992
2.5487	12.8400
2.5475	12.8348
2.5462	12.7968
2.5450	12.8198
2.5437	12.8418
2.5425	12.8665
2.5413	12.8512
2.5400	12.7976
2.5388	12.8231
2.5375	12.8444
2.5363	12.8400
2.5350	12.8512
2.5338	12.8459
2.5326	12.8559
2.5313	12.8493
2.5301	12.8371
2.5289	12.8348
2.5276	12.8339
2.5264	12.8625
2.5252	12.8280
2.5239	12.7706
2.5227	12.8311
2.5215	12.9164
2.5202	12.9356
2.5190	12.9205
2.5178	12.9342
2.5166	12.9595
2.5154	12.9351
2.5141	12.8906
2.5129	12.8950
2.5117	12.8986
2.5105	12.8669
2.5093	12.8236
2.5081	12.8488
2.5068	12.9056
2.5056	12.9449
2.5044	12.9670
2.5032	13.0073
2.5020	12.9787
2.5008	12.9150
2.4996	12.9225
2.4984	12.9904
2.4972	12.9948
2.4960	12.9630
2.4948	13.0158
2.4936	13.0429
2.4924	12.9876
2.4912	12.9613
2.4900	12.9778
2.4888	13.0301
2.4876	13.0288
2.4864	12.9773
2.4852	13.0265
2.4840	13.0603
2.4828	13.0111
2.4816	13.0548
2.4805	13.0743
2.4793	13.0286
2.4781	12.9724
2.4769	13.0083
2.4757	13.0771
2.4745	13.0668
2.4734	13.0600
2.4722	13.1142
2.4710	13.0860
2.4698	13.0880
2.4686	13.1503
2.4675	13.1283
2.4663	13.1311
2.4651	13.0978
2.4640	13.0654
2.4628	13.1360
2.4616	13.1737
2.4604	13.1925
2.4593	13.2281
2.4581	13.2438
2.4569	13.2122
2.4558	13.2159
2.4546	13.2566
2.4535	13.2468
2.4523	13.2140
2.4511	13.2516
2.4500	13.2595
2.4488	13.2093
2.4477	13.1747
2.4465	13.1648
2.4454	13.1506
2.4442	13.2205
2.4431	13.3213
2.4419	13.3368
2.4408	13.2782
2.4396	13.2319
2.4385	13.3049
2.4373	13.3425
2.4362	13.2272
2.4350	13.2382
2.4339	13.2970
2.4327	13.3303
2.4316	13.2787
2.4305	13.2468
2.4293	13.2300
2.4282	13.2187
2.4270	13.2348
2.4259	13.2909
2.4248	13.2684
2.4236	13.1841
2.4225	13.1911
2.4214	13.2262
2.4202	13.2187
2.4191	13.2051
2.4180	13.2065
2.4169	13.3028
2.4157	13.3260
2.4146	13.3472
2.4135	13.3228
2.4124	13.2890
2.4112	13.2942
2.4101	13.2862
2.4090	13.2844
2.4079	13.3462
2.4068	13.3758
2.4056	13.3504
2.4045	13.3636
2.4034	13.3397
2.4023	13.3678
2.4012	13.4132
2.4001	13.4348
2.3990	13.4156
2.3979	13.3973
2.3967	13.4220
2.3956	13.4854
2.3945	13.4798
2.3934	13.4943
2.3923	13.5042
2.3912	13.4868
2.3901	13.4597
2.3890	13.4868
2.3879	13.4325
2.3868	13.4278
2.3857	13.5595
2.3846	13.4756
2.3835	13.3922
2.3824	13.4156
2.3813	13.4249
2.3802	13.4413
2.3791	13.4807
2.3781	13.5182
2.3770	13.5590
2.3759	13.5202
2.3748	13.4841
2.3737	13.4916
2.3726	13.5290
2.3715	13.5210
2.3704	13.5056
2.3694	13.5628
2.3683	13.5909
2.3672	13.5595
2.3661	13.5412
2.3650	13.5553
2.3640	13.5356
2.3629	13.4812
2.3618	13.4859
2.3607	13.4929
2.3597	13.4798
2.3586	13.5351
2.3575	13.6031
2.3564	13.6641
2.3554	13.5989
2.3543	13.5314
2.3532	13.5501
2.3522	13.5431
2.3511	13.4610
2.3500	13.3865
2.3490	13.3978
2.3479	13.3987
2.3468	13.4147
2.3458	13.4667
2.3447	13.4929
2.3436	13.4777
2.3426	13.5213
2.3415	13.4585
2.3405	13.4221
2.3394	13.4454
2.3384	13.4636
2.3373	13.4843
2.3363	13.5302
2.3352	13.6033
2.3342	13.5708
2.3331	13.5365
2.3321	13.6200
2.3310	13.5537
2.3300	13.4477
2.3289	13.5302
2.3279	13.5706
2.3268	13.5945
2.3258	13.6926
2.3247	13.5851
2.3237	13.5178
2.3226	13.6070
2.3216	13.7205
2.3206	13.7020
2.3195	13.6713
2.3185	13.6875
2.3175	13.7186
2.3164	13.7023
2.3154	13.6192
2.3144	13.5602
2.3133	13.6090
2.3123	13.6329
2.3113	13.6101
2.3102	13.6704
2.3092	13.6624
2.3082	13.6696
2.3071	13.6870
2.3061	13.7287
2.3051	13.7700
2.3041	13.7243
2.3030	13.6758
2.3020	13.7217
2.3010	13.7472
2.3000	13.7662
2.2990	13.7065
2.2979	13.7207
2.2969	13.8213
2.2959	13.8592
2.2949	13.7798
2.2939	13.7446
2.2929	13.6955
2.2918	13.6275
2.2908	13.6687
2.2898	13.8005
2.2888	13.8808
2.2878	13.7774
2.2868	13.7430
2.2858	13.8227
2.2848	13.7932
2.2838	13.7623
2.2828	13.7711
2.2818	13.7639
2.2808	13.8033
2.2798	13.8457
2.2787	13.8566
2.2777	13.8675
2.2767	13.8126
2.2757	13.7296
2.2747	13.7301
2.2738	13.7883
2.2728	13.7890
2.2718	13.7953
2.2708	13.8213
2.2698	13.8396
2.2688	13.8236
2.2678	13.8208
2.2668	13.7798
2.2658	13.8012
2.2648	13.9033
2.2638	13.9317
2.2628	13.8805
2.2618	13.9160
2.2609	13.8335
2.2599	13.8147
2.2589	13.8400
2.2579	13.8417
2.2569	13.9052
2.2559	13.8839
2.2550	13.8300
2.2540	13.8646
2.2530	13.8970
2.2520	13.8942
2.2510	13.8747
2.2501	13.8290
2.2491	13.7969
2.2481	13.8194
2.2471	13.8808
2.2462	13.8633
2.2452	13.9200
2.2442	13.9221
2.2433	13.9188
2.2423	13.9326
2.2413	13.9096
2.2403	13.8764
2.2394	13.9166
2.2384	13.8846
2.2374	13.9083
2.2365	13.8956
2.2355	13.8490
2.2345	13.8942
2.2336	13.9434
2.2326	13.8792
2.2317	13.7913
2.2307	13.8722
2.2297	13.9249
2.2288	13.8595
2.2278	13.8714
2.2269	13.9350
2.2259	13.9309
2.2250	13.8945
2.2240	13.8867
2.2231	13.8420
2.2221	13.8724
2.2211	13.9446
2.2202	13.8867
2.2192	13.8319
2.2183	13.8792
2.2173	13.9364
2.2164	13.9867
2.2155	13.9584
2.2145	13.9251
2.2136	13.8384
2.2126	13.8628
2.2117	13.8867
2.2107	13.8703
2.2098	13.8255
2.2088	13.8288
2.2079	13.8883
2.2070	13.9005
2.2060	13.9049
2.2051	13.9225
2.2041	13.8340
2.2032	13.8368
2.2023	13.9303
2.2013	13.9699
2.2004	13.8947
2.1995	13.8091
2.1985	13.9335
2.1976	14.0212
2.1967	13.8862
2.1957	13.8977
2.1948	13.9476
2.1939	13.9218
2.1930	13.9402
2.1920	13.9839
2.1911	13.9537
2.1902	13.9047
2.1893	13.8799
2.1883	13.8670
2.1874	13.9041
2.1865	13.9044
2.1856	13.8511
2.1846	13.9239
2.1837	13.9284
2.1828	13.8646
2.1819	13.8152
2.1810	13.8543
2.1800	13.9596
2.1791	13.9242
2.1782	13.9267
2.1773	13.9242
2.1764	13.8443
2.1755	13.8462
2.1746	13.9725
2.1736	13.9753
2.1727	13.9192
2.1718	13.9108
2.1709	13.8714
2.1700	13.8319
2.1691	13.8932
2.1682	13.9891
2.1673	14.0413
2.1664	14.0618
2.1655	13.9737
2.1646	13.9378
2.1637	13.9706
2.1628	13.9164
2.1619	13.9127
2.1610	13.9399
2.1601	13.8970
2.1592	13.9075
2.1583	13.9561
2.1574	13.9282
2.1565	13.9267
2.1556	13.9305
2.1547	13.8625
2.1538	13.9312
2.1529	13.9737
2.1520	13.9059
2.1511	13.9570
2.1502	14.0114
2.1493	14.0067
2.1484	13.9519
2.1475	13.9282
2.1466	13.8780
2.1458	13.9099
2.1449	13.9382
2.1440	13.9108
2.1431	13.9589
2.1422	13.9797
2.1413	13.9603
2.1404	13.9418
2.1396	13.9792
2.1387	13.9771
2.1378	14.0008
2.1369	13.9865
2.1360	13.9361
2.1352	13.9021
2.1343	13.8914
2.1334	13.9308
2.1325	13.9509
2.1316	13.8637
2.1308	13.8283
2.1299	13.8855
2.1290	13.8780
2.1281	13.8810
2.1273	13.8722
2.1264	13.9249
2.1255	13.9837
2.1247	13.9359
2.1238	13.9209
2.1229	13.9308
2.1220	13.9525
2.1212	13.9387
2.1203	13.8705
2.1194	13.9122
2.1186	13.9099
2.1177	13.8984
2.1168	13.9239
2.1160	13.9312
2.1151	13.9155
2.1143	13.9397
2.1134	13.8881
2.1125	13.8574
2.1117	13.8881
2.1108	13.9080
2.1100	13.9296
2.1091	13.9275
2.1082	13.8810
2.1074	13.8755
2.1065	13.9021
2.1057	13.8733
2.1048	13.9080
2.1040	13.9139
2.1031	13.8394
2.1023	13.8424
2.1014	13.8405
2.1005	13.8449
2.0997	13.8586
2.0988	13.8548
2.0980	13.8745
2.0971	13.8883
2.0963	13.8612
2.0955	13.8633
2.0946	13.8996
2.0938	13.9005
2.0929	13.8906
2.0921	13.9085
2.0912	13.8846
2.0904	13.8932
2.0895	13.9148
2.0887	13.9399
2.0879	13.9612
2.0870	13.8860
2.0862	13.8909
2.0853	13.9326
2.0845	13.9296
2.0837	13.9415
2.0828	13.8792
2.0820	13.8919
2.0812	13.9143
2.0803	13.8785
2.0795	13.8351
2.0760	13.6980
2.0720	13.6725
2.0680	13.7137
2.0640	13.7335
2.0600	13.6912
2.0560	13.5921
2.0520	13.6233
2.0480	13.6559
2.0440	13.6230
2.0400	13.6244
2.0360	13.7477
2.0320	13.6383
2.0280	13.7259
2.0240	13.7013
2.0200	13.6223
2.0160	13.6177
2.0120	13.4657
2.0080	13.5958
2.0040	13.5637
2.0000	13.5654
1.9960	13.4994
1.9920	13.4531
1.9880	13.4711
1.9840	13.4475
1.9800	13.4092
1.9760	13.3554
1.9720	13.4012
1.9680	13.3461
1.9640	13.3435
1.9600	13.2723
1.9560	13.2077
1.9520	13.1932
1.9480	13.2070
1.9440	13.1186
1.9400	13.1613
1.9360	13.1261
1.9320	13.1107
1.9280	13.1165
1.9240	13.1690
1.9200	13.3220
1.9160	13.2949
1.9120	13.2600
1.9080	13.2990
1.9040	13.5000
1.9000	13.6343
1.8960	13.5689
1.8920	13.6087
1.8880	13.8471
1.8840	13.9729
1.8800	14.0299
1.8760	13.9928
1.8720	14.2014
1.8680	14.2849
1.8640	14.2728
1.8600	14.2993
1.8560	14.4187
1.8520	14.4492
1.8480	14.4311
1.8440	14.4643
1.8400	14.4944
1.8360	14.4897
1.8320	14.4007
1.8280	14.3733
1.8240	14.3779
1.8200	14.4335
1.8160	14.4769
1.8120	14.5395
1.8080	14.5015
1.8040	14.4816
1.8000	14.4130
1.7960	14.4788
1.7920	14.5550
1.7880	14.4542
1.7840	14.5815
1.7800	14.4792
1.7760	14.6023
1.7720	14.5362
1.7680	14.6035
1.7640	14.6340
1.7600	14.6851
1.7560	14.6990
1.7520	14.6206
1.7480	14.5971
1.7440	14.5418
1.7400	14.6796
1.7360	14.6701
1.7320	14.6378
1.7280	14.6741
1.7240	14.7855
1.7200	14.7509
1.7160	14.7216
1.7120	14.6797
1.7080	14.6852
1.7040	14.6626
1.7000	14.7259
1.6960	14.6821
1.6920	14.7289
1.6880	14.8171
1.6840	14.7731
1.6800	14.6500
1.6760	14.7736
1.6720	14.8548
1.6680	14.7752
1.6640	14.8506
1.6600	14.8869
1.6560	14.8466
1.6520	14.8744
1.6480	14.8869
1.6440	14.8681
1.6400	14.7816
1.6360	14.7534
1.6320	14.7790
1.6280	14.8450
1.6240	14.8928
1.6200	14.9194
1.6160	14.9959
1.6120	14.9042
1.6080	14.9019
1.6040	14.9529
1.6000	15.0278
1.5960	15.0330
1.5920	15.0289
1.5880	15.1209
1.5840	15.0713
1.5800	14.9884
1.5760	14.9895
1.5720	14.9798
1.5680	15.0099
1.5640	14.9508
1.5600	15.0934
1.5560	15.1065
1.5520	15.0958
1.5480	15.0150
1.5440	14.9090
1.5400	14.9854
1.5360	15.1600
1.5320	15.0318
1.5280	15.0683
1.5240	15.0255
1.5200	14.8539
1.5160	15.0085
1.5120	14.8834
1.5080	15.0054
1.5040	15.0178
1.5000	14.9808
1.4960	14.4858
1.4920	14.5363
1.4880	14.5012
1.4840	14.7577
1.4800	14.8388
1.4760	14.8622
1.4720	14.9311
1.4680	14.8700
1.4640	14.8110
1.4600	14.8737
1.4560	14.9586
1.4520	15.0457
1.4480	15.0877
1.4440	15.1074
1.4400	15.1339
1.4360	15.0636
1.4320	15.0877
1.4280	15.0839
1.4240	15.0275
1.4200	15.0005
1.4160	14.9164
1.4120	14.8349
1.4080	14.6961
1.4040	14.8884
1.4000	14.8627
1.3960	14.7811
1.3920	14.8813
1.3880	14.8959
1.3840	15.0586
1.3800	15.0026
1.3760	15.0211
1.3720	15.1870
1.3680	15.1896
1.3640	15.0231
1.3600	15.0821
1.3560	15.1974
1.3520	15.2969
1.3480	15.3512
1.3440	15.3961
1.3400	15.1104
1.3360	15.2301
1.3320	15.2193
1.3280	15.2352
1.3240	15.3633
1.3200	15.4086
1.3160	15.3339
1.3120	15.3855
1.3080	15.4270
1.3040	15.4163
1.3000	15.3849
1.2960	15.3031
1.2920	15.3297
1.2880	15.2541
1.2840	15.3373
1.2800	15.3898
1.2760	15.2096
1.2720	15.2571
1.2680	15.3749
1.2640	15.3303
1.2600	15.4160
1.2560	15.3894
1.2520	15.4329
1.2480	15.4317
1.2440	15.3156
1.2400	15.1446
1.2360	15.1660
1.2320	15.1889
1.2280	15.1665
1.2240	15.1404
1.2200	15.0355
1.2160	14.9936
1.2120	15.0307
1.2080	15.2158
1.2040	15.2864
1.2000	15.2799
1.1960	15.3006
1.1920	15.4340
1.1880	15.3885
1.1840	15.4236
1.1800	15.4156
1.1760	15.4356
1.1720	15.4581
1.1680	15.4214
1.1640	15.3459
1.1600	15.3710
1.1560	15.3902
1.1520	15.4102
1.1480	15.1784
1.1440	15.0621
1.1400	15.1958
1.1360	15.3867
1.1320	15.3310
1.1280	15.4343
1.1240	15.3578
1.1200	15.4404
1.1160	15.4825
1.1120	15.4471
1.1080	15.3881
1.1040	15.4066
1.1000	15.4516
1.0960	15.5353
1.0920	15.5834
1.0880	15.5741
1.0840	15.5102
1.0800	15.5483
1.0760	15.5320
1.0720	15.6316
1.0680	15.5328
1.0640	15.5181
1.0600	15.5841
1.0560	15.4922
1.0520	15.4959
1.0480	15.2881
1.0440	15.5872
1.0400	15.5234
1.0360	15.4160
1.0320	15.4612
1.0280	15.4418
1.0240	15.7726
1.0200	15.7747
1.0160	15.4428
1.0120	15.6361
1.0080	15.7868
1.0040	15.6181
1.0000	15.7634
0.9960	15.7072
0.9920	15.6755
0.9880	15.8011
0.9840	15.7162
0.9800	15.7438
0.9760	15.7976
0.9720	15.7586
0.9680	15.8392
0.9640	15.8797
0.9600	15.9093
0.9560	15.8846
0.9520	15.9624
0.9480	15.9638
0.9440	15.8861
0.9400	15.9171
0.9360	15.8902
0.9320	16.0677
0.9280	16.0050
0.9240	16.0026
0.9200	16.1216
0.9160	16.1088
0.9120	16.2010
0.9080	16.0865
0.9040	16.0377
0.9000	16.0729
0.8960	16.0622
0.8920	16.1966
0.8880	16.1664
0.8840	15.8861
0.8800	16.0746
0.8760	15.9104
0.8720	15.9548
0.8680	15.9580
0.8640	16.0637
0.8600	16.0909
0.8560	16.1864
0.8520	16.0580
0.8480	16.0305
0.8440	16.1108
0.8400	16.2073
0.8360	16.0698
0.8320	16.3226
0.8280	16.0618
0.8240	16.2833
0.8200	16.2918
0.8160	16.2857
0.8120	16.4529
0.8080	16.3141
0.8040	16.4105
0.8000	16.3412
0.7990	16.2715
0.7980	16.2682
0.7970	16.4325
0.7960	16.5356
0.7950	16.1019
0.7940	15.8574
0.7930	15.9270
0.7920	15.6558
0.7910	15.9027
0.7900	16.3354
0.7890	16.2869
0.7880	15.9996
0.7870	16.3830
0.7860	16.4641
0.7850	16.0207
0.7840	16.1616
0.7830	16.1993
0.7820	16.1554
0.7810	16.1133
0.7800	15.9725
0.7790	15.9922
0.7780	16.0576
0.7770	16.0955
0.7760	16.3712
0.7750	16.0576
0.7740	16.3514
0.7730	16.2135
0.7720	16.0614
0.7710	16.0390
0.7700	15.7756
0.7690	16.1514
0.7680	16.1537
0.7670	16.0800
0.7660	16.4132
0.7650	16.3250
0.7640	16.2832
0.7630	16.1654
0.7620	16.3478
0.7610	16.1825
0.7600	16.1347
0.7590	16.4917
0.7580	16.3355
0.7570	16.2459
0.7560	16.0679
0.7550	16.1160
0.7540	16.3625
0.7530	16.3331
0.7520	16.3379
0.7510	16.1011
0.7500	16.2248
0.7490	16.5552
0.7480	16.2911
0.7470	16.4387
0.7460	16.3961
0.7450	16.3132
0.7440	16.0951
0.7430	16.1686
0.7420	16.0741
0.7410	16.0492
0.7400	16.0554
0.7390	16.1375
0.7380	16.1375
0.7370	16.1754
0.7360	16.5365
0.7350	16.4564
0.7340	16.4002
0.7330	16.1996
0.7320	16.3277
0.7310	16.1384
0.7300	15.9367
0.7290	16.2068
0.7280	16.2451
0.7270	16.1928
0.7260	16.1405
0.7250	16.3924
0.7240	16.2799
0.7230	16.2323
0.7220	16.0378
0.7210	15.9612
0.7200	16.1024
0.7190	16.3499
0.7180	16.1187
0.7170	16.2064
0.7160	16.2732
0.7150	16.3725
0.7140	16.2021
0.7130	16.2032
0.7120	16.5352
0.7110	16.3630
0.7100	16.1019
0.7090	15.9268
0.7080	15.9636
0.7070	16.3731
0.7060	16.1030
0.7050	16.0683
0.7040	16.1259
0.7030	16.3478
0.7020	16.3881
0.7010	16.3197
0.7000	16.0837
0.6990	16.2797
0.6980	16.3986
0.6970	16.4047
0.6960	16.4788
0.6950	16.4417
0.6940	16.1000
0.6930	16.2406
0.6920	16.3010
0.6910	16.0538
0.6900	16.2016
0.6890	16.4550
0.6880	16.2309
0.6870	16.4408
0.6860	16.4895
0.6850	16.2893
0.6840	16.4929
0.6830	16.0293
0.6820	16.1019
0.6810	16.2827
0.6800	16.3222
0.6790	16.4150
0.6780	16.4760
0.6770	16.1057
0.6760	16.3115
0.6750	16.3756
0.6740	16.2641
0.6730	16.3088
0.6720	16.2711
0.6710	16.3131
0.6700	16.1389
0.6690	16.1472
0.6680	16.3674
0.6670	16.1582
0.6660	16.6583
0.6650	16.7711
0.6640	16.6079
0.6630	16.6126
0.6620	16.4935
0.6610	16.4176
0.6600	16.3964
0.6590	16.7541
0.6580	16.4245
0.6570	16.3986
0.6560	16.4430
0.6550	16.6694
0.6540	16.6954
0.6530	16.6625
0.6520	16.3526
0.6510	16.4441
0.6500	16.2412
0.6490	16.4163
0.6480	16.4960
0.6470	16.6602
0.6460	16.4071
0.6450	16.4751
0.6440	16.5492
0.6430	16.8477
0.6420	16.8683
0.6410	16.8543
0.6400	16.8885
0.6390	16.8210
0.6380	16.5376
0.6370	16.6262
0.6360	16.4804
0.6350	16.7501
0.6340	16.9054
0.6330	16.6270
0.6320	16.8051
0.6310	16.8576
0.6300	16.7280
0.6290	16.8156
0.6280	16.8763
0.6270	16.6358
0.6260	16.8346
0.6250	16.6467
0.6240	16.6352
0.6230	16.6760
0.6220	16.6633
0.6210	16.8433
0.6200	16.6196
0.6190	16.6030
0.6180	16.6891
0.6170	16.5190
0.6160	16.8162
0.6150	17.0243
0.6140	16.7433
0.6130	16.6890
0.6120	16.7906
0.6110	16.9718
0.6100	17.1261
0.6090	16.9955
0.6080	16.9151
0.6070	17.0260
0.6060	17.0292
0.6050	16.9600
0.6040	16.8940
0.6030	17.0347
0.6020	16.7650
0.6010	16.8837
0.6000	16.6890
0.5990	16.7754
0.5980	16.8523
0.5970	16.9419
0.5960	16.7915
0.5950	16.8941
0.5940	16.7719
0.5930	16.6917
0.5920	17.3029
0.5910	16.8641
0.5900	16.8773
0.5890	17.1628
0.5880	16.9599
0.5870	16.9732
0.5860	16.9391
0.5850	17.0801
0.5840	17.0920
0.5830	17.1750
0.5820	17.3441
0.5810	17.0220
0.5800	17.0273
0.5790	17.1295
0.5780	17.1345
0.5770	16.9742
0.5760	17.1544
0.5750	17.2334
0.5740	17.0871
0.5730	16.9149
0.5720	16.9651
0.5710	16.9940
0.5700	17.0150
0.5690	16.8572
0.5680	17.0024
0.5670	16.9869
0.5660	17.0066
0.5650	17.1220
0.5640	17.1568
0.5630	17.1029
0.5620	17.2924
0.5610	17.2434
0.5600	17.1312
0.5590	17.1223
0.5580	16.8787
0.5570	16.7650
0.5560	16.6982
0.5550	17.0925
0.5540	16.9983
0.5530	16.8520
0.5520	16.8161
0.5510	16.8536
0.5500	17.0123
0.5490	16.8869
0.5480	17.2073
0.5470	17.0238
0.5460	16.7929
0.5450	16.9380
0.5440	17.2330
0.5430	17.0634
0.5420	16.8329
0.5410	17.0316
0.5400	17.1272
0.5390	17.2246
0.5380	17.0660
0.5370	17.0304
0.5360	16.8432
0.5350	16.7773
0.5340	17.2146
0.5330	16.8334
0.5320	16.9400
0.5310	17.0333
0.5300	17.2099
0.5290	17.0582
0.5280	16.8507
0.5270	16.9159
0.5260	17.1558
0.5250	16.7402
0.5240	16.8556
0.5230	16.9105
0.5220	17.0867
0.5210	16.9951
0.5200	16.7598
0.5190	17.0328
0.5180	16.6975
0.5170	17.0798
0.5160	16.9923
0.5150	16.7953
0.5140	17.1532
0.5130	16.8900
0.5120	16.6230
0.5110	16.6334
0.5100	16.6322
0.5090	16.5837
0.5080	16.6552
0.5070	16.3940
0.5060	16.4869
0.5050	16.6024
0.5040	16.3879
0.5030	16.6879
0.5020	16.3479
0.5010	16.6535
0.5000	16.7400
0.4990	16.7417
0.4980	16.8634
0.4970	16.6456
0.4960	16.3922
0.4950	16.5876
0.4940	16.4904
0.4930	16.5422
0.4920	16.2139
0.4910	16.2366
0.4900	16.4451
0.4890	16.6107
0.4880	16.3939
0.4870	16.1909
0.4860	16.6531
0.4850	16.4173
0.4840	16.2124
0.4830	16.4159
0.4820	16.2271
0.4810	16.0597
0.4800	16.1220
0.4790	15.9947
0.4780	16.0612
0.4770	16.2732
0.4760	16.0084
0.4750	15.9795
0.4740	15.9966
0.4730	15.8115
0.4720	16.0696
0.4710	15.7604
0.4700	16.0104
0.4690	15.9730
0.4680	16.2506
0.4670	15.6906
0.4660	15.6112
0.4650	15.5192
0.4640	16.0289
0.4630	15.7923
0.4620	15.8280
0.4610	15.6783
0.4600	15.3941
0.4590	15.6121
0.4580	15.8754
0.4570	15.7161
0.4560	15.5100
0.4550	15.3697
0.4540	15.8232
0.4530	15.7115
0.4520	15.6218
0.4510	15.3246
0.4500	15.4687
0.4490	15.4901
0.4480	15.1844
0.4470	15.3018
0.4460	15.3907
0.4450	15.2507
0.4440	15.1444
0.4430	15.3958
0.4420	15.0724
0.4410	14.9046
0.4400	15.0234
0.4390	15.1579
0.4380	14.8213
0.4370	15.0474
0.4360	14.9843
0.4350	14.8592
0.4340	14.8731
0.4330	14.8917
0.4320	15.0311
0.4310	14.5888
0.4300	14.5771
0.4290	14.6136
0.4280	14.4335
0.4270	14.5913
0.4260	14.3503
0.4250	14.6028
0.4240	14.3082
0.4230	13.7906
0.4220	14.3167
0.4210	14.0826
0.4200	14.1186
0.4190	14.1264
0.4180	13.7920
0.4170	13.9905
0.4160	13.7486
0.4150	13.9769
0.4140	13.9978
0.4130	13.9289
0.4120	13.8621
0.4110	13.4665
0.4100	13.4620
0.4090	13.4046
0.4080	13.3290
0.4070	13.0731
0.4060	13.0996
0.4050	13.4814
0.4040	13.3458
0.4030	13.0549
0.4020	13.2015
0.4010	13.3402
0.4000	13.0566
	
