Name: Colemanite Ca2B6O11 * 5H2O
Type: Mineral
Class: Borate
Subclass: None
Particle Size: Unsieved coarse powder
Sample No.: None
Owner: USGS
Wavelength range: 0.40 - 14.05 um
Origin: Boron, California

Description: Colemanite powder from Boron, California





Measurement: Directional Hemispherical Reflectance
First Column: X
Second Column: Y
X Units: Wavelength (micrometers)
Y Units: Reflectance (percent)
First X Value: 14.05105
Last X Value: 0.40000
Number of X Values: 2756
Additional Information: None

 14.051   4.0376
 14.013   4.0788
 13.975   4.1097
 13.938   4.0067
 13.900   4.2333
 13.863   4.3363
 13.826   4.5629
 13.790   4.6865
 13.753   4.8410
 13.717   4.8719
 13.680   5.0573
 13.644   5.0676
 13.609   5.0985
 13.573   4.8101
 13.538   4.3157
 13.502   3.8522
 13.467   3.7389
 13.432   3.7698
 13.398   3.9140
 13.363   4.1097
 13.329   4.4290
 13.295   4.5732
 13.261   4.8513
 13.227   5.1294
 13.193   5.4281
 13.160   5.6547
 13.126   5.9019
 13.093   5.9225
 13.060   5.7989
 13.027   5.3354
 12.995   4.6453
 12.962   3.8831
 12.930   3.5123
 12.898   3.3681
 12.866   3.3887
 12.834   3.4711
 12.802   3.6771
 12.771   3.7801
 12.739   3.9037
 12.708   4.0170
 12.677   4.1921
 12.646   4.2642
 12.616   4.3878
 12.585   4.4187
 12.554   4.4290
 12.524   4.3981
 12.494   4.4393
 12.464   4.5217
 12.434   4.6556
 12.404   4.7071
 12.375   4.9131
 12.345   5.0161
 12.316   5.0779
 12.287   5.0573
 12.258   4.9955
 12.229   4.8822
 12.200   4.8101
 12.171   4.6556
 12.143   4.5526
 12.115   4.5114
 12.086   4.6453
 12.058   4.6144
 12.030   4.7277
 12.002   4.8101
 11.975   4.9440
 11.947   5.0573
 11.920   5.2942
 11.892   5.4487
 11.865   5.6856
 11.838   5.8504
 11.811   6.0152
 11.784   6.0667
 11.757   6.2727
 11.731   6.4375
 11.704   6.6126
 11.678   6.7259
 11.652   6.9731
 11.626   7.0864
 11.600   7.2100
 11.574   7.2821
 11.548   7.3954
 11.522   7.4160
 11.497   7.4057
 11.471   7.4572
 11.446   7.5396
 11.421   7.5293
 11.396   7.6632
 11.371   7.9104
 11.346   8.1164
 11.321   8.1988
 11.297   8.3224
 11.272   8.5284
 11.248   8.7962
 11.223   8.9095
 11.199   9.0537
 11.175   9.1670
 11.151   9.2494
 11.127   9.3936
 11.103   9.7026
 11.079   9.9807
 11.056  10.3000
 11.032  10.5369
 11.009  10.8150
 10.985  11.1549
 10.962  11.5360
 10.939  11.8553
 10.916  12.1746
 10.893  12.3909
 10.870  12.5763
 10.848  12.5454
 10.825  12.4218
 10.802  12.2467
 10.780  11.9274
 10.758  11.4639
 10.735  11.1549
 10.713  10.8871
 10.691  10.8047
 10.669  10.9077
 10.647  11.1549
 10.625  11.3609
 10.604  11.6184
 10.582  11.8553
 10.560  12.0304
 10.539  12.1231
 10.518  12.3394
 10.496  12.4424
 10.475  12.5454
 10.454  12.5454
 10.433  12.4836
 10.412  12.2879
 10.391  12.0716
 10.370  11.7523
 10.350  11.3197
 10.329  10.6193
 10.309   9.9086
 10.288   9.2082
 10.268   8.5387
 10.247   7.8177
 10.227   7.3233
 10.207   6.9525
 10.187   6.6538
 10.167   6.3963
 10.147   6.2212
 10.127   6.0255
 10.108   5.9122
 10.088   5.8298
 10.068   5.7577
 10.049   5.5620
 10.029   5.3869
 10.010   5.2015
  9.991   5.0058
  9.972   4.6659
  9.952   4.4496
  9.933   4.3157
  9.914   4.2230
  9.895   4.1200
  9.877   4.0376
  9.858   3.9861
  9.839   4.0479
  9.821   4.1097
  9.802   4.1818
  9.783   4.2024
  9.765   4.2436
  9.747   4.2230
  9.728   4.3672
  9.710   4.5320
  9.692   4.6556
  9.674   4.6968
  9.656   4.7689
  9.638   4.8307
  9.620   4.9543
  9.602   5.0367
  9.585   5.1603
  9.567   5.3045
  9.549   5.5311
  9.532   5.7165
  9.514   5.8401
  9.497   5.8092
  9.479   5.7165
  9.462   5.4281
  9.445   4.9749
  9.428   4.4496
  9.411   4.1303
  9.394   3.8522
  9.377   3.5535
  9.360   3.2548
  9.343   3.0488
  9.326   2.9149
  9.309   2.8325
  9.293   2.6368
  9.276   2.5132
  9.259   2.3278
  9.243   2.1733
  9.226   2.0806
  9.210   1.9879
  9.194   1.8231
  9.178   1.7922
  9.161   1.6892
  9.145   1.6274
  9.129   1.5965
  9.113   1.6377
  9.097   1.7304
  9.081   1.7613
  9.065   1.7407
  9.049   1.8334
  9.034   1.9467
  9.018   2.0188
  9.002   2.0291
  8.987   2.0703
  8.971   2.0291
  8.956   2.0909
  8.940   2.0909
  8.925   2.2248
  8.909   2.2145
  8.894   2.2042
  8.879   2.2042
  8.864   2.3278
  8.849   2.2866
  8.834   2.2145
  8.819   2.2248
  8.804   2.2763
  8.789   2.2454
  8.774   2.2454
  8.759   2.2145
  8.744   2.1939
  8.730   2.1115
  8.715   2.1321
  8.700   2.1630
  8.686   2.2248
  8.671   2.1218
  8.657   2.0909
  8.642   2.1012
  8.628   2.1424
  8.614   2.1527
  8.599   2.1527
  8.585   2.1012
  8.571   2.0188
  8.557   1.9158
  8.543   1.8643
  8.529   1.7304
  8.515   1.6377
  8.501   1.5862
  8.487   1.4420
  8.473   1.3081
  8.459   1.2875
  8.445   1.2257
  8.431   1.2566
  8.418   1.3184
  8.404   1.3699
  8.391   1.3287
  8.377   1.3493
  8.363   1.3287
  8.350   1.4111
  8.337   1.5450
  8.323   1.6274
  8.310   1.6480
  8.297   1.7407
  8.283   1.7613
  8.270   1.8334
  8.257   1.8952
  8.244   2.0085
  8.231   2.0291
  8.218   2.1218
  8.205   2.2248
  8.192   2.3587
  8.179   2.4411
  8.166   2.5338
  8.153   2.5544
  8.140   2.5956
  8.128   2.5647
  8.115   2.5956
  8.102   2.5338
  8.090   2.4205
  8.077   2.2969
  8.064   2.1939
  8.052   2.0909
  8.039   2.1321
  8.027   2.1630
  8.015   2.1939
  8.002   2.1733
  7.990   2.2763
  7.978   2.4308
  7.965   2.5956
  7.953   2.7295
  7.941   2.8737
  7.929   2.9767
  7.917   3.1209
  7.905   3.2239
  7.893   3.3578
  7.881   3.4505
  7.869   3.5123
  7.857   3.5432
  7.845   3.5432
  7.833   3.4299
  7.821   3.3269
  7.809   3.2136
  7.798   3.1003
  7.786   3.0282
  7.774   3.0694
  7.763   3.0797
  7.751   3.0179
  7.739   2.9870
  7.728   2.9973
  7.716   2.9870
  7.705   3.0282
  7.694   3.0900
  7.682   3.2239
  7.671   3.3887
  7.659   3.6359
  7.648   3.8934
  7.637   4.2230
  7.626   4.5732
  7.614   5.0058
  7.603   5.4693
  7.592   5.8916
  7.581   6.2212
  7.570   6.4478
  7.559   6.6435
  7.548   6.8083
  7.537   6.9113
  7.526   7.0452
  7.515   7.0967
  7.504   7.1070
  7.493   7.0864
  7.483   7.0658
  7.472   7.0143
  7.461   6.9010
  7.450   6.7465
  7.440   6.5817
  7.429   6.2727
  7.418   5.9225
  7.408   5.5620
  7.397   5.2530
  7.387   5.1603
  7.376   5.3045
  7.366   5.6341
  7.355   6.0358
  7.345   6.3448
  7.334   6.7259
  7.324   7.1173
  7.314   7.4778
  7.303   7.7662
  7.293   8.0031
  7.283   8.1988
  7.273   8.3121
  7.263   8.3121
  7.252   8.3018
  7.242   8.1782
  7.232   8.0134
  7.222   7.7662
  7.212   7.5190
  7.202   7.1997
  7.192   6.9010
  7.182   6.6126
  7.172   6.2418
  7.162   5.9225
  7.152   5.6856
  7.143   5.4281
  7.133   5.2221
  7.123   5.0470
  7.113   4.7998
  7.103   4.5526
  7.094   4.3672
  7.084   4.1612
  7.074   3.9964
  7.065   3.7080
  7.055   3.3784
  7.046   3.0797
  7.036   2.8016
  7.026   2.5544
  7.017   2.3587
  7.007   2.1115
  6.998   1.9261
  6.989   1.7201
  6.979   1.5759
  6.970   1.5038
  6.960   1.4008
  6.951   1.2669
  6.942   1.2566
  6.932   1.2257
  6.923   1.2051
  6.914   1.1845
  6.905   1.1433
  6.896   1.1124
  6.886   1.1124
  6.877   1.0815
  6.868   1.1021
  6.859   1.1227
  6.850   1.1433
  6.841   1.0918
  6.832   1.1124
  6.823   1.0918
  6.814   1.0712
  6.805   1.0609
  6.796   1.0403
  6.787   1.0197
  6.778   1.0197
  6.770   1.0197
  6.761   1.0918
  6.752   1.0609
  6.743   1.0300
  6.734   0.9991
  6.726   1.0094
  6.717   1.0815
  6.708   1.1021
  6.700   1.0918
  6.691   1.1021
  6.682   1.0300
  6.674   1.0506
  6.665   1.0815
  6.657   1.1433
  6.648   1.1948
  6.640   1.1948
  6.631   1.1433
  6.623   1.1330
  6.614   1.1742
  6.606   1.2463
  6.597   1.3081
  6.589   1.2978
  6.581   1.2257
  6.572   1.2154
  6.564   1.2257
  6.556   1.2566
  6.547   1.2566
  6.539   1.2978
  6.531   1.3081
  6.523   1.2875
  6.514   1.3081
  6.506   1.3493
  6.498   1.3287
  6.490   1.3390
  6.482   1.3184
  6.474   1.3287
  6.466   1.3287
  6.458   1.2772
  6.450   1.2360
  6.442   1.2463
  6.434   1.2669
  6.426   1.2257
  6.418   1.1227
  6.410   1.0300
  6.402   1.0197
  6.394   1.0403
  6.386   0.9888
  6.378   0.9682
  6.370   0.9270
  6.363   0.8858
  6.355   0.8858
  6.347   0.9167
  6.339   0.8755
  6.332   0.8343
  6.324   0.8343
  6.316   0.8961
  6.308   0.9064
  6.301   0.8961
  6.293   0.8652
  6.286   0.8549
  6.278   0.8549
  6.270   0.8858
  6.263   0.8652
  6.255   0.8549
  6.248   0.8549
  6.240   0.8858
  6.233   0.8446
  6.225   0.8137
  6.218   0.8034
  6.210   0.8240
  6.203   0.8755
  6.195   0.8961
  6.188   0.8652
  6.181   0.8755
  6.173   0.8446
  6.166   0.8034
  6.159   0.8034
  6.151   0.8549
  6.144   0.8755
  6.137   0.9064
  6.130   0.9270
  6.122   0.9064
  6.115   0.8549
  6.108   0.8755
  6.101   0.8858
  6.094   0.8549
  6.086   0.8446
  6.079   0.8549
  6.072   0.8652
  6.065   0.9167
  6.058   0.9270
  6.051   0.8961
  6.044   0.9064
  6.037   0.9167
  6.030   0.9373
  6.023   0.9167
  6.016   0.9064
  6.009   0.9579
  6.002   0.9579
  5.995   0.9682
  5.988   0.9682
  5.981   0.9991
  5.974   0.9579
  5.967   0.9270
  5.960   0.9579
  5.954   0.9476
  5.947   0.9579
  5.940   1.0197
  5.933   1.0300
  5.926   1.0609
  5.920   1.0197
  5.913   1.0094
  5.906   0.9991
  5.899   0.9991
  5.893   0.9888
  5.886   0.9579
  5.879   0.9270
  5.873   0.9991
  5.866   1.0506
  5.859   1.0197
  5.853   0.9785
  5.846   1.0197
  5.840   1.0403
  5.833   1.0300
  5.827   1.0300
  5.820   1.0094
  5.813   0.9888
  5.807   1.0197
  5.800   1.0506
  5.794   1.0918
  5.788   1.1124
  5.781   1.1227
  5.775   1.1124
  5.768   1.0712
  5.762   1.0506
  5.755   1.0918
  5.749   1.0815
  5.743   1.1021
  5.736   1.1227
  5.730   1.1330
  5.724   1.1433
  5.717   1.1227
  5.711   1.1227
  5.705   1.1227
  5.698   1.1124
  5.692   1.1124
  5.686   1.1433
  5.680   1.1639
  5.674   1.1845
  5.667   1.2257
  5.661   1.2257
  5.655   1.2154
  5.649   1.2051
  5.643   1.1948
  5.637   1.1536
  5.630   1.1742
  5.624   1.2257
  5.618   1.2566
  5.612   1.2360
  5.606   1.2566
  5.600   1.2978
  5.594   1.2875
  5.588   1.2463
  5.582   1.2463
  5.576   1.2257
  5.570   1.2566
  5.564   1.2978
  5.558   1.2669
  5.552   1.2257
  5.546   1.2669
  5.540   1.2978
  5.534   1.3081
  5.528   1.3493
  5.523   1.3493
  5.517   1.3493
  5.511   1.3596
  5.505   1.3493
  5.499   1.3287
  5.493   1.3287
  5.487   1.3802
  5.482   1.3802
  5.476   1.4008
  5.470   1.4214
  5.464   1.4214
  5.459   1.3802
  5.453   1.4111
  5.447   1.4523
  5.441   1.4626
  5.436   1.4317
  5.430   1.4420
  5.424   1.4729
  5.419   1.4523
  5.413   1.4729
  5.407   1.4523
  5.402   1.4420
  5.396   1.4935
  5.390   1.5141
  5.385   1.5347
  5.379   1.5244
  5.374   1.5244
  5.368   1.5141
  5.363   1.5244
  5.357   1.5553
  5.352   1.5656
  5.346   1.5656
  5.341   1.5862
  5.335   1.6068
  5.330   1.6068
  5.324   1.5862
  5.319   1.5656
  5.313   1.5656
  5.308   1.5965
  5.302   1.5862
  5.297   1.5759
  5.291   1.6171
  5.286   1.6274
  5.281   1.6480
  5.275   1.6892
  5.270   1.6686
  5.265   1.6789
  5.259   1.6789
  5.254   1.6480
  5.249   1.6377
  5.243   1.6583
  5.238   1.6686
  5.233   1.6789
  5.227   1.6892
  5.222   1.6892
  5.217   1.7098
  5.212   1.7098
  5.206   1.7098
  5.201   1.6892
  5.196   1.6789
  5.191   1.6995
  5.186   1.7201
  5.180   1.6995
  5.175   1.7407
  5.170   1.7613
  5.165   1.7407
  5.160   1.7716
  5.155   1.7510
  5.150   1.6995
  5.145   1.7098
  5.139   1.7510
  5.134   1.8025
  5.129   1.8025
  5.124   1.7510
  5.119   1.6995
  5.114   1.7407
  5.109   1.8025
  5.104   1.7819
  5.099   1.7201
  5.094   1.7407
  5.089   1.7922
  5.084   1.8128
  5.079   1.8334
  5.074   1.8540
  5.069   1.8540
  5.064   1.8128
  5.059   1.7613
  5.054   1.7613
  5.049   1.8128
  5.044   1.8025
  5.040   1.7922
  5.035   1.7819
  5.030   1.7922
  5.025   1.8746
  5.020   1.8952
  5.015   1.8334
  5.010   1.8231
  5.005   1.8437
  5.001   1.8334
  4.996   1.8334
  4.991   1.8643
  4.986   1.8540
  4.981   1.8437
  4.977   1.8437
  4.972   1.8540
  4.967   1.8952
  4.962   1.9055
  4.958   1.8952
  4.953   1.8643
  4.948   1.8746
  4.943   1.9055
  4.939   1.8952
  4.934   1.8746
  4.929   1.8540
  4.925   1.8437
  4.920   1.8746
  4.915   1.9158
  4.911   1.9364
  4.906   1.9673
  4.901   1.9467
  4.897   1.9673
  4.892   1.9673
  4.888   1.9673
  4.883   1.9673
  4.878   1.9982
  4.874   1.9364
  4.869   1.8952
  4.865   1.9261
  4.860   1.9982
  4.856   1.9879
  4.851   1.9467
  4.846   1.9673
  4.842   1.9776
  4.837   1.9467
  4.833   1.9261
  4.828   1.9158
  4.824   1.9673
  4.819   2.0188
  4.815   1.9776
  4.810   1.9467
  4.806   1.9158
  4.802   1.9467
  4.797   2.0085
  4.793   1.9982
  4.788   2.0188
  4.784   2.0497
  4.779   2.0188
  4.775   1.9673
  4.771   1.9776
  4.766   2.0188
  4.762   1.9982
  4.758   2.0497
  4.753   2.0291
  4.749   1.9467
  4.744   1.8952
  4.740   1.9158
  4.736   1.9982
  4.731   2.0394
  4.727   2.0497
  4.723   2.0600
  4.719   1.9982
  4.714   1.9467
  4.710   1.9364
  4.706   1.9673
  4.701   1.9570
  4.697   1.9570
  4.693   1.9776
  4.689   1.9879
  4.684   1.9776
  4.680   1.9673
  4.676   1.9261
  4.672   1.9055
  4.668   1.8952
  4.663   1.8643
  4.659   1.8746
  4.655   1.8952
  4.651   1.9055
  4.647   1.9158
  4.643   1.9261
  4.638   1.9570
  4.634   1.9879
  4.630   2.0085
  4.626   2.0394
  4.622   1.9879
  4.618   1.9467
  4.614   1.9570
  4.610   1.9570
  4.605   1.9673
  4.601   1.9879
  4.597   1.9982
  4.593   2.0188
  4.589   2.0188
  4.585   1.9982
  4.581   1.9673
  4.577   1.9982
  4.573   2.0394
  4.569   2.0188
  4.565   2.0085
  4.561   2.0600
  4.557   2.0806
  4.553   2.0188
  4.549   2.0085
  4.545   2.0806
  4.541   2.1012
  4.537   2.1012
  4.533   2.1012
  4.529   2.0497
  4.525   2.0085
  4.521   2.0291
  4.517   2.0806
  4.513   2.1012
  4.509   2.0806
  4.505   2.0497
  4.502   2.0703
  4.498   2.0394
  4.494   2.0497
  4.490   2.0806
  4.486   2.0909
  4.482   2.1012
  4.478   2.1218
  4.474   2.0909
  4.470   2.0394
  4.467   2.0188
  4.463   2.0806
  4.459   2.1424
  4.455   2.1630
  4.451   2.1424
  4.447   2.1424
  4.444   2.1630
  4.440   2.1527
  4.436   2.1218
  4.432   2.1836
  4.428   2.2145
  4.425   2.1733
  4.421   2.1321
  4.417   2.1321
  4.413   2.1321
  4.410   2.2145
  4.406   2.2660
  4.402   2.2351
  4.398   2.2042
  4.395   2.1527
  4.391   2.1424
  4.387   2.1733
  4.384   2.2042
  4.380   2.2042
  4.376   2.1836
  4.372   2.1836
  4.369   2.1630
  4.365   2.2351
  4.361   2.2763
  4.358   2.2042
  4.354   2.1836
  4.350   2.1939
  4.347   2.1630
  4.343   2.1527
  4.340   2.2145
  4.336   2.2763
  4.332   2.2969
  4.329   2.2763
  4.325   2.2866
  4.321   2.2454
  4.318   2.2042
  4.314   2.1527
  4.311   2.1733
  4.307   2.2557
  4.304   2.2042
  4.300   2.1527
  4.296   2.2145
  4.293   2.2763
  4.289   2.2454
  4.286   2.2454
  4.282   2.2969
  4.279   2.2660
  4.275   2.2145
  4.272   2.2248
  4.268   2.2351
  4.265   2.1939
  4.261   2.2866
  4.258   2.3278
  4.254   2.2660
  4.251   2.2351
  4.247   2.2145
  4.244   2.3175
  4.240   2.3999
  4.237   2.4102
  4.233   2.3278
  4.230   2.2557
  4.226   2.2454
  4.223   2.2763
  4.219   2.2763
  4.216   2.2145
  4.213   2.1527
  4.209   2.1836
  4.206   2.2145
  4.202   2.3175
  4.199   2.3278
  4.196   2.2660
  4.192   2.2248
  4.189   2.2660
  4.185   2.3381
  4.182   2.3484
  4.179   2.2866
  4.175   2.2660
  4.172   2.2454
  4.169   2.2454
  4.165   2.2454
  4.162   2.2557
  4.159   2.2248
  4.155   2.2763
  4.152   2.3072
  4.149   2.2351
  4.145   2.2248
  4.142   2.3072
  4.139   2.3072
  4.135   2.2145
  4.132   2.1939
  4.129   2.2454
  4.126   2.2763
  4.122   2.2763
  4.119   2.2660
  4.116   2.2763
  4.112   2.2866
  4.109   2.2763
  4.106   2.2660
  4.103   2.2557
  4.099   2.2351
  4.096   2.2042
  4.093   2.2042
  4.090   2.1836
  4.086   2.1527
  4.083   2.1424
  4.080   2.1939
  4.077   2.1836
  4.074   2.1321
  4.070   2.1218
  4.067   2.1115
  4.064   2.0806
  4.061   2.1218
  4.058   2.1321
  4.055   2.1012
  4.051   2.1115
  4.048   2.1115
  4.045   2.1012
  4.042   2.0497
  4.039   2.0600
  4.036   2.0497
  4.032   2.0600
  4.029   2.0497
  4.026   2.0085
  4.023   1.9879
  4.020   1.9982
  4.017   1.9673
  4.014   1.9982
  4.011   2.0188
  4.008   2.0085
  4.004   1.9776
  4.001   1.9982
  3.998   2.0394
  3.995   2.0394
  3.992   2.0188
  3.989   2.0291
  3.986   2.0600
  3.983   2.0497
  3.980   2.0600
  3.977   2.0188
  3.974   1.9158
  3.971   1.9673
  3.968   1.9673
  3.965   1.9364
  3.962   1.9467
  3.959   2.0188
  3.956   2.0394
  3.953   1.9879
  3.950   1.9364
  3.947   1.9261
  3.944   1.9673
  3.941   2.0085
  3.938   1.9673
  3.935   1.9776
  3.932   2.0394
  3.929   2.1115
  3.926   2.0806
  3.923   2.0291
  3.920   2.0188
  3.917   2.0291
  3.914   2.0291
  3.911   2.0909
  3.908   2.0806
  3.905   2.0806
  3.902   2.0188
  3.899   1.9982
  3.896   2.0497
  3.893   2.1218
  3.890   2.1115
  3.887   2.0497
  3.884   1.9776
  3.882   1.9673
  3.879   2.0600
  3.876   2.1115
  3.873   2.1321
  3.870   2.1218
  3.867   2.0497
  3.864   2.1424
  3.861   2.1218
  3.858   2.0806
  3.856   2.0394
  3.853   2.0909
  3.850   2.1424
  3.847   2.1012
  3.844   2.0600
  3.841   2.1424
  3.838   2.1424
  3.836   2.1424
  3.833   2.1939
  3.830   2.2042
  3.827   2.1836
  3.824   2.1836
  3.822   2.2042
  3.819   2.2763
  3.816   2.2660
  3.813   2.2866
  3.810   2.2660
  3.807   2.2042
  3.805   2.1630
  3.802   2.1321
  3.799   2.1836
  3.796   2.3278
  3.794   2.3278
  3.791   2.2866
  3.788   2.2866
  3.785   2.2866
  3.782   2.3072
  3.780   2.3690
  3.777   2.4411
  3.774   2.4514
  3.771   2.3690
  3.769   2.3072
  3.766   2.2763
  3.763   2.3381
  3.761   2.3587
  3.758   2.3072
  3.755   2.3175
  3.752   2.3793
  3.750   2.3793
  3.747   2.3484
  3.744   2.3175
  3.742   2.2969
  3.739   2.3381
  3.736   2.3999
  3.733   2.3072
  3.731   2.3278
  3.728   2.4205
  3.725   2.4308
  3.723   2.3793
  3.720   2.3690
  3.717   2.3381
  3.715   2.3896
  3.712   2.3793
  3.709   2.3896
  3.707   2.4514
  3.704   2.4617
  3.702   2.3999
  3.699   2.3896
  3.696   2.3896
  3.694   2.3896
  3.691   2.3793
  3.688   2.4102
  3.686   2.3999
  3.683   2.3793
  3.680   2.3999
  3.678   2.4102
  3.675   2.3793
  3.673   2.3690
  3.670   2.3896
  3.667   2.3793
  3.665   2.2969
  3.662   2.3690
  3.660   2.4411
  3.657   2.3690
  3.655   2.3587
  3.652   2.3896
  3.649   2.4308
  3.647   2.4514
  3.644   2.4514
  3.642   2.4308
  3.639   2.3896
  3.637   2.3793
  3.634   2.3278
  3.632   2.3999
  3.629   2.5132
  3.626   2.5235
  3.624   2.4926
  3.621   2.4102
  3.619   2.2763
  3.616   2.3175
  3.614   2.4102
  3.611   2.4720
  3.609   2.4926
  3.606   2.4308
  3.604   2.3587
  3.601   2.3175
  3.599   2.3278
  3.596   2.3999
  3.594   2.3690
  3.591   2.2969
  3.589   2.3072
  3.586   2.3587
  3.584   2.3690
  3.581   2.3690
  3.579   2.2763
  3.576   2.2660
  3.574   2.3072
  3.571   2.2763
  3.569   2.3175
  3.567   2.3690
  3.564   2.2866
  3.562   2.2969
  3.559   2.3484
  3.557   2.3484
  3.554   2.3072
  3.552   2.3175
  3.549   2.3278
  3.547   2.3381
  3.545   2.3484
  3.542   2.3278
  3.540   2.2660
  3.537   2.2660
  3.535   2.2763
  3.533   2.2557
  3.530   2.2351
  3.528   2.2454
  3.525   2.2763
  3.523   2.2660
  3.521   2.2351
  3.518   2.2454
  3.516   2.2042
  3.513   2.2145
  3.511   2.2042
  3.509   2.1424
  3.506   2.1012
  3.504   2.1424
  3.502   2.1733
  3.499   2.1939
  3.497   2.2042
  3.494   2.2145
  3.492   2.1527
  3.490   2.1733
  3.487   2.1836
  3.485   2.2042
  3.483   2.1939
  3.480   2.2145
  3.478   2.1939
  3.476   2.1012
  3.473   2.1218
  3.471   2.1939
  3.469   2.1527
  3.466   2.1527
  3.464   2.1527
  3.462   2.2042
  3.460   2.2145
  3.457   2.2248
  3.455   2.1424
  3.453   2.1527
  3.450   2.2042
  3.448   2.1939
  3.446   2.1630
  3.443   2.2454
  3.441   2.2660
  3.439   2.2557
  3.437   2.1836
  3.434   2.1733
  3.432   2.2248
  3.430   2.2969
  3.428   2.3175
  3.425   2.2248
  3.423   2.1630
  3.421   2.1115
  3.418   2.0703
  3.416   2.1733
  3.414   2.2042
  3.412   2.1424
  3.409   2.1836
  3.407   2.2866
  3.405   2.2248
  3.403   2.1424
  3.401   2.1321
  3.398   2.2042
  3.396   2.1939
  3.394   2.1630
  3.392   2.1321
  3.389   2.1733
  3.387   2.2145
  3.385   2.1939
  3.383   2.1733
  3.381   2.1733
  3.378   2.1630
  3.376   2.1321
  3.374   2.0909
  3.372   2.1218
  3.370   2.2145
  3.367   2.2042
  3.365   2.1321
  3.363   2.1321
  3.361   2.1836
  3.359   2.1527
  3.357   2.1424
  3.354   2.1424
  3.352   2.1321
  3.350   2.2042
  3.348   2.1218
  3.346   2.1012
  3.344   2.1424
  3.341   2.2248
  3.339   2.2866
  3.337   2.2763
  3.335   2.2145
  3.333   2.1939
  3.331   2.1424
  3.329   2.0600
  3.326   2.0497
  3.324   2.1733
  3.322   2.2660
  3.320   2.2454
  3.318   2.2042
  3.316   2.2248
  3.314   2.2042
  3.312   2.2454
  3.309   2.2454
  3.307   2.2866
  3.305   2.1939
  3.303   2.1321
  3.301   2.1836
  3.299   2.3072
  3.297   2.3175
  3.295   2.3587
  3.293   2.3690
  3.291   2.3278
  3.288   2.2454
  3.286   2.1939
  3.284   2.1424
  3.282   2.1836
  3.280   2.2660
  3.278   2.2660
  3.276   2.1836
  3.274   2.2454
  3.272   2.2248
  3.270   2.2248
  3.268   2.2351
  3.266   2.1939
  3.264   2.2351
  3.262   2.2866
  3.259   2.2454
  3.257   2.2145
  3.255   2.1733
  3.253   2.2145
  3.251   2.2763
  3.249   2.3278
  3.247   2.3175
  3.245   2.2866
  3.243   2.2660
  3.241   2.1836
  3.239   2.1733
  3.237   2.2145
  3.235   2.1939
  3.233   2.2557
  3.231   2.3896
  3.229   2.3896
  3.227   2.2763
  3.225   2.2042
  3.223   2.1939
  3.221   2.2351
  3.219   2.2557
  3.217   2.2248
  3.215   2.2454
  3.213   2.2454
  3.211   2.2454
  3.209   2.2454
  3.207   2.2351
  3.205   2.2660
  3.203   2.2557
  3.201   2.2969
  3.199   2.1733
  3.197   2.1115
  3.195   2.2042
  3.193   2.2042
  3.191   2.1836
  3.189   2.2351
  3.187   2.2454
  3.185   2.2042
  3.183   2.2248
  3.182   2.2660
  3.180   2.2660
  3.178   2.2145
  3.176   2.1733
  3.174   2.1939
  3.172   2.0703
  3.170   2.0291
  3.168   2.1424
  3.166   2.2351
  3.164   2.1630
  3.162   2.2042
  3.160   2.1424
  3.158   2.0497
  3.156   2.0497
  3.154   2.0600
  3.152   2.0600
  3.151   2.1115
  3.149   2.1218
  3.147   2.1836
  3.145   2.1630
  3.143   2.1012
  3.141   2.0188
  3.139   2.0188
  3.137   1.9879
  3.135   2.0703
  3.133   2.1012
  3.132   2.0394
  3.130   1.9776
  3.128   1.9055
  3.126   1.8540
  3.124   1.9776
  3.122   1.9982
  3.120   1.9673
  3.118   2.0085
  3.117   2.0600
  3.115   1.9673
  3.113   1.9467
  3.111   1.9673
  3.109   2.0600
  3.107   2.0600
  3.105   2.0909
  3.103   2.1012
  3.102   1.9364
  3.100   1.8437
  3.098   2.0085
  3.096   1.9879
  3.094   1.8643
  3.092   1.9364
  3.091   2.0394
  3.089   1.9055
  3.087   1.9261
  3.085   1.9982
  3.083   1.9776
  3.081   1.7819
  3.079   1.7201
  3.078   1.8025
  3.076   1.7819
  3.074   1.7098
  3.072   1.7922
  3.070   1.8025
  3.069   1.7922
  3.067   1.6789
  3.065   1.7613
  3.063   1.8128
  3.061   1.7613
  3.060   1.7304
  3.058   1.7201
  3.056   1.7510
  3.054   1.8334
  3.052   1.8334
  3.051   1.8334
  3.049   1.7716
  3.047   1.7201
  3.045   1.8025
  3.043   1.7098
  3.042   1.5656
  3.040   1.6583
  3.038   1.6789
  3.036   1.7098
  3.034   1.5759
  3.033   1.5450
  3.031   1.4832
  3.029   1.4626
  3.027   1.5141
  3.026   1.5450
  3.024   1.4935
  3.022   1.5038
  3.020   1.4935
  3.019   1.4935
  3.017   1.5244
  3.015   1.4729
  3.013   1.3081
  3.012   1.4008
  3.010   1.5244
  3.008   1.5038
  3.006   1.2875
  3.005   1.2154
  3.003   1.3287
  3.001   1.3699
  2.999   1.3699
  2.998   1.3287
  2.996   1.2154
  2.994   1.2566
  2.992   1.3493
  2.991   1.4626
  2.989   1.3699
  2.987   1.2978
  2.986   1.2772
  2.984   1.4111
  2.982   1.4214
  2.980   1.3596
  2.979   1.3184
  2.977   1.4214
  2.975   1.3390
  2.974   1.2360
  2.972   1.2669
  2.970   1.3081
  2.968   1.2772
  2.967   1.3493
  2.965   1.4111
  2.963   1.3905
  2.962   1.2669
  2.960   1.3287
  2.958   1.3699
  2.957   1.2463
  2.955   1.2978
  2.953   1.4214
  2.952   1.2772
  2.950   1.3287
  2.948   1.4214
  2.947   1.3699
  2.945   1.3699
  2.943   1.4832
  2.942   1.3390
  2.940   1.2772
  2.938   1.3081
  2.937   1.2051
  2.935   1.1227
  2.933   1.2669
  2.932   1.4111
  2.930   1.3287
  2.928   1.2875
  2.927   1.4008
  2.925   1.4008
  2.923   1.4832
  2.922   1.5141
  2.920   1.4008
  2.918   1.3184
  2.917   1.3596
  2.915   1.3493
  2.913   1.3802
  2.912   1.3699
  2.910   1.5347
  2.909   1.5965
  2.907   1.6377
  2.905   1.5759
  2.904   1.5141
  2.902   1.4832
  2.900   1.4420
  2.899   1.5244
  2.897   1.4935
  2.896   1.3905
  2.894   1.3596
  2.892   1.2360
  2.891   1.4420
  2.889   1.6892
  2.887   1.8025
  2.886   1.7922
  2.884   1.5244
  2.883   1.3905
  2.881   1.6171
  2.879   1.8128
  2.878   1.8025
  2.876   1.6377
  2.875   1.6480
  2.873   1.6789
  2.871   1.6583
  2.870   1.5347
  2.868   1.6171
  2.867   1.6377
  2.865   1.6480
  2.864   1.6892
  2.862   1.6480
  2.860   1.5347
  2.859   1.6789
  2.857   1.7716
  2.856   1.6686
  2.854   1.6377
  2.853   1.7819
  2.851   1.7922
  2.849   1.7304
  2.848   1.6995
  2.846   1.6892
  2.845   1.7304
  2.843   1.7922
  2.842   1.8025
  2.840   1.7201
  2.838   1.6892
  2.837   1.6480
  2.835   1.5656
  2.834   1.6480
  2.832   1.6274
  2.831   1.6068
  2.829   1.5141
  2.828   1.5965
  2.826   1.6686
  2.825   1.6583
  2.823   1.5759
  2.821   1.5553
  2.820   1.7098
  2.818   1.9055
  2.817   1.9055
  2.815   1.8025
  2.814   1.7201
  2.812   1.7819
  2.811   1.6171
  2.809   1.6171
  2.808   1.6995
  2.806   1.8025
  2.805   1.8437
  2.803   1.7819
  2.802   1.6377
  2.800   1.8231
  2.799   1.9467
  2.797   2.0291
  2.796   1.9570
  2.794   1.9055
  2.793   1.7716
  2.791   1.8746
  2.790   2.0909
  2.788   2.0909
  2.787   1.9261
  2.785   1.8849
  2.784   1.7510
  2.782   1.8334
  2.781   1.9158
  2.779   1.9673
  2.778   1.9467
  2.776   1.9055
  2.775   1.6274
  2.773   1.4626
  2.772   1.3699
  2.770   1.3390
  2.769   1.2566
  2.767   1.4214
  2.766   1.4008
  2.764   1.3081
  2.763   1.4008
  2.761   1.5244
  2.760   1.5347
  2.758   1.4935
  2.757   1.4832
  2.756   1.5450
  2.754   1.5450
  2.753   1.7098
  2.751   1.7407
  2.750   1.7201
  2.748   1.7304
  2.747   1.7613
  2.745   1.8540
  2.744   1.9776
  2.742   1.9261
  2.741   1.8128
  2.740   1.8231
  2.738   2.0085
  2.737   2.0600
  2.735   2.0394
  2.734   1.9364
  2.732   1.9879
  2.731   2.0806
  2.729   2.1836
  2.728   2.1012
  2.727   2.2351
  2.725   2.3072
  2.724   2.3278
  2.722   2.0188
  2.721   1.7922
  2.719   1.8849
  2.718   1.9364
  2.717   1.8746
  2.715   2.1115
  2.714   2.1939
  2.712   2.1218
  2.711   2.0600
  2.709   2.2763
  2.708   2.4617
  2.707   2.5750
  2.705   2.4308
  2.704   2.4308
  2.702   2.2763
  2.701   2.1939
  2.700   2.3484
  2.698   2.5956
  2.697   2.5441
  2.695   2.3278
  2.694   2.4617
  2.693   2.7192
  2.691   2.6059
  2.690   2.5338
  2.688   2.5544
  2.687   2.6265
  2.686   2.7398
  2.684   2.7913
  2.683   2.5441
  2.681   2.5750
  2.680   2.8325
  2.679   2.7501
  2.677   2.6162
  2.676   2.6883
  2.675   2.8531
  2.673   3.0488
  2.672   2.8222
  2.670   2.5544
  2.669   2.6677
  2.668   2.8840
  2.666   2.8222
  2.665   2.6986
  2.664   2.6265
  2.662   2.6265
  2.661   2.7398
  2.659   2.8943
  2.658   2.9664
  2.657   3.0076
  2.655   3.1106
  2.654   2.9973
  2.653   2.8428
  2.651   2.8222
  2.650   2.9767
  2.649   2.9870
  2.647   2.8428
  2.646   2.9252
  2.645   2.9973
  2.643   2.8634
  2.642   2.8325
  2.640   2.8531
  2.639   2.9046
  2.638   3.0591
  2.636   3.0385
  2.635   2.9767
  2.634   2.8325
  2.632   2.9149
  2.631   2.8737
  2.630   2.8119
  2.628   2.9046
  2.627   3.0900
  2.626   3.1621
  2.624   3.1003
  2.623   3.0797
  2.622   3.3475
  2.620   3.2754
  2.619   3.2033
  2.618   3.0591
  2.617   2.8943
  2.615   2.9149
  2.614   3.0591
  2.613   3.0900
  2.611   3.1930
  2.610   3.0488
  2.609   3.1518
  2.607   3.1930
  2.606   3.1209
  2.605   3.2033
  2.603   3.3578
  2.602   3.2342
  2.601   3.2548
  2.599   3.2754
  2.598   3.1724
  2.597   3.1209
  2.596   3.1003
  2.594   2.9870
  2.593   3.0900
  2.592   3.2651
  2.590   3.3887
  2.589   3.2960
  2.588   3.2548
  2.586   3.2754
  2.585   3.1827
  2.584   3.0797
  2.583   3.1312
  2.581   3.1312
  2.580   3.1724
  2.579   3.2239
  2.577   3.2136
  2.576   3.3475
  2.575   3.4814
  2.574   3.3784
  2.572   3.3063
  2.571   3.3166
  2.570   3.4917
  2.569   3.5535
  2.567   3.5020
  2.566   3.3269
  2.565   3.1621
  2.563   3.0179
  2.562   3.1312
  2.561   3.3269
  2.560   3.4917
  2.558   3.4917
  2.557   3.3166
  2.556   3.2342
  2.555   3.3475
  2.553   3.1106
  2.552   3.1209
  2.551   3.2960
  2.550   3.2754
  2.548   3.3269
  2.547   3.2857
  2.546   3.1106
  2.545   3.3784
  2.543   3.5947
  2.542   3.5329
  2.541   3.2239
  2.540   3.1930
  2.538   3.2754
  2.537   3.4093
  2.536   3.3475
  2.535   3.3269
  2.533   3.4196
  2.532   3.5844
  2.531   3.5741
  2.530   3.4814
  2.528   3.3784
  2.527   3.5020
  2.526   3.6153
  2.525   3.6668
  2.524   3.5432
  2.522   3.4299
  2.521   3.2857
  2.520   3.4711
  2.519   3.4917
  2.517   3.3578
  2.516   3.4093
  2.515   3.4917
  2.514   3.4711
  2.513   3.5123
  2.511   3.4299
  2.510   3.2754
  2.509   3.0797
  2.508   3.3372
  2.506   3.6050
  2.505   3.6565
  2.504   3.6359
  2.503   3.6565
  2.502   3.6668
  2.500   3.6977
  2.500   3.6977
  2.498   3.8006
  2.496   3.5548
  2.494   3.5506
  2.492   3.6834
  2.490   3.6615
  2.488   3.6158
  2.486   3.7023
  2.484   3.7328
  2.482   3.6081
  2.480   3.6017
  2.478   3.7126
  2.476   3.3970
  2.474   3.8354
  2.472   3.8918
  2.470   3.8926
  2.468   3.8236
  2.466   3.7382
  2.464   3.7551
  2.462   3.8347
  2.460   3.6612
  2.458   3.9042
  2.456   3.7936
  2.454   3.9434
  2.452   3.9266
  2.450   3.8854
  2.448   3.7994
  2.446   3.8793
  2.444   4.0442
  2.442   3.8534
  2.440   4.0525
  2.438   3.9209
  2.436   3.9813
  2.434   3.9322
  2.432   4.1098
  2.430   4.0836
  2.428   3.9258
  2.426   4.1078
  2.424   4.0706
  2.422   4.0132
  2.420   4.1686
  2.418   4.0344
  2.416   3.9700
  2.414   4.1782
  2.412   4.2148
  2.410   4.2197
  2.408   4.1726
  2.406   4.3481
  2.404   4.2136
  2.402   4.3149
  2.400   4.4896
  2.398   4.1638
  2.396   4.3127
  2.394   4.4424
  2.392   4.3946
  2.390   4.4863
  2.388   4.4834
  2.386   4.3929
  2.384   4.4784
  2.382   4.5053
  2.380   4.6401
  2.378   4.5571
  2.376   4.6207
  2.374   4.7690
  2.372   4.7173
  2.370   4.7288
  2.368   4.6155
  2.366   4.7345
  2.364   4.7432
  2.362   4.7996
  2.360   4.7972
  2.358   4.8161
  2.356   4.8849
  2.354   4.8065
  2.352   4.8111
  2.350   4.8495
  2.348   4.9204
  2.346   4.9654
  2.344   4.9853
  2.342   4.9059
  2.340   4.9666
  2.338   4.9601
  2.336   5.0371
  2.334   5.0369
  2.332   5.0783
  2.330   5.1200
  2.328   5.1141
  2.326   5.0672
  2.324   5.1977
  2.322   5.1995
  2.320   5.1797
  2.318   5.1867
  2.316   5.1826
  2.314   5.2022
  2.312   5.1698
  2.310   5.2464
  2.308   5.2845
  2.306   5.2628
  2.304   5.2498
  2.302   5.2026
  2.300   5.2025
  2.298   5.2295
  2.296   5.1879
  2.294   5.2241
  2.292   5.2888
  2.290   5.2388
  2.288   5.2194
  2.286   5.2291
  2.284   5.1994
  2.282   5.1686
  2.280   5.1878
  2.278   5.1891
  2.276   5.2302
  2.274   5.1915
  2.272   5.1411
  2.270   5.1073
  2.268   5.0853
  2.266   5.0828
  2.264   5.0599
  2.262   5.0974
  2.260   5.0839
  2.258   5.0196
  2.256   4.9609
  2.254   4.9587
  2.252   4.9745
  2.250   4.9293
  2.248   4.9034
  2.246   4.8683
  2.244   4.8423
  2.242   4.7794
  2.240   4.7906
  2.238   4.7448
  2.236   4.7406
  2.234   4.6691
  2.232   4.6918
  2.230   4.6454
  2.228   4.6154
  2.226   4.6435
  2.224   4.5818
  2.222   4.5377
  2.220   4.5238
  2.218   4.4809
  2.216   4.4374
  2.214   4.4578
  2.212   4.4680
  2.210   4.4294
  2.208   4.4903
  2.206   4.4809
  2.204   4.3956
  2.202   4.4691
  2.200   4.4893
  2.198   4.4645
  2.196   4.5051
  2.194   4.5396
  2.192   4.5684
  2.190   4.5130
  2.188   4.5442
  2.186   4.6149
  2.184   4.6576
  2.182   4.6628
  2.180   4.6826
  2.178   4.6366
  2.176   4.5950
  2.174   4.6679
  2.172   4.6730
  2.170   4.7076
  2.168   4.7248
  2.166   4.7835
  2.164   4.8324
  2.162   4.7812
  2.160   4.8314
  2.158   4.8366
  2.156   4.8763
  2.154   4.9494
  2.152   5.0074
  2.150   5.0072
  2.148   4.9330
  2.146   4.9872
  2.144   5.0354
  2.142   5.0195
  2.140   4.9554
  2.138   4.8922
  2.136   4.7930
  2.134   4.7657
  2.132   4.7666
  2.130   4.7150
  2.128   4.6419
  2.126   4.5553
  2.124   4.5209
  2.122   4.5136
  2.120   4.4463
  2.118   4.4019
  2.116   4.3495
  2.114   4.3308
  2.112   4.3382
  2.110   4.3748
  2.108   4.3490
  2.106   4.3091
  2.104   4.3177
  2.102   4.3624
  2.100   4.4102
  2.098   4.5079
  2.096   4.6843
  2.094   4.7293
  2.092   4.8118
  2.090   4.9189
  2.088   4.9914
  2.086   5.1095
  2.084   5.1092
  2.082   5.0893
  2.080   5.1729
  2.078   5.2347
  2.076   5.2454
  2.074   5.2835
  2.072   5.2766
  2.070   5.2393
  2.068   5.2836
  2.066   5.2498
  2.064   5.2270
  2.062   5.3310
  2.060   5.2521
  2.058   5.3125
  2.056   5.3126
  2.054   5.2522
  2.052   5.3060
  2.050   5.2995
  2.048   5.2302
  2.046   5.2416
  2.044   5.2035
  2.042   5.2904
  2.040   5.1990
  2.038   5.2153
  2.036   5.2370
  2.034   5.1365
  2.032   5.1209
  2.030   5.1380
  2.028   5.1333
  2.026   5.1142
  2.024   5.1298
  2.022   5.0676
  2.020   5.0701
  2.018   5.0015
  2.016   5.0572
  2.014   5.1434
  2.012   5.0460
  2.010   4.9929
  2.008   4.9420
  2.006   4.9695
  2.004   4.9749
  2.002   4.9779
  2.000   4.9962
  1.998   4.9787
  1.996   4.9349
  1.994   4.9464
  1.992   4.9269
  1.990   4.9309
  1.988   4.9376
  1.986   4.9427
  1.984   4.8894
  1.982   4.9478
  1.980   4.8758
  1.978   4.9067
  1.976   4.9257
  1.974   4.8508
  1.972   4.8598
  1.970   4.8823
  1.968   4.8902
  1.966   4.9313
  1.964   4.8299
  1.962   4.9352
  1.960   4.9676
  1.958   4.9696
  1.956   4.9397
  1.954   4.9549
  1.952   5.1136
  1.950   5.0782
  1.948   5.1813
  1.946   5.2515
  1.944   5.3397
  1.942   5.4721
  1.940   5.5291
  1.938   5.5999
  1.936   5.6953
  1.934   5.8388
  1.932   5.8636
  1.930   5.9938
  1.928   6.1134
  1.926   6.2179
  1.924   6.2237
  1.922   6.3697
  1.920   6.4478
  1.918   6.4555
  1.916   6.6406
  1.914   6.6123
  1.912   6.7233
  1.910   6.6885
  1.908   6.9553
  1.906   6.9645
  1.904   6.9803
  1.902   7.0350
  1.900   7.1454
  1.898   7.2237
  1.896   7.0834
  1.894   7.2754
  1.892   7.3145
  1.890   7.3196
  1.888   7.4497
  1.886   7.4471
  1.884   7.4420
  1.882   7.5908
  1.880   7.5878
  1.878   7.7521
  1.876   7.8136
  1.874   7.7966
  1.872   7.8208
  1.870   7.8907
  1.868   7.9172
  1.866   7.9018
  1.864   7.7906
  1.862   7.8834
  1.860   7.8715
  1.858   7.8655
  1.856   7.9830
  1.854   7.9706
  1.852   7.9631
  1.850   7.8998
  1.848   7.8677
  1.846   8.0436
  1.844   7.9013
  1.842   7.9990
  1.840   7.9583
  1.838   7.8937
  1.836   7.9916
  1.834   7.8678
  1.832   7.7583
  1.830   7.6723
  1.828   7.8772
  1.826   7.7392
  1.824   7.7991
  1.822   7.7492
  1.820   7.7165
  1.818   7.7495
  1.816   7.5786
  1.814   7.5919
  1.812   7.7511
  1.810   7.6125
  1.808   7.6644
  1.806   7.5869
  1.804   7.5659
  1.802   7.6654
  1.800   7.5938
  1.798   7.6104
  1.796   7.7091
  1.794   7.6147
  1.792   7.7137
  1.790   7.5010
  1.788   7.5729
  1.786   7.5601
  1.784   7.6095
  1.782   7.5648
  1.780   7.5896
  1.778   7.6023
  1.776   7.5897
  1.774   7.5504
  1.772   7.6729
  1.770   7.7033
  1.768   7.5322
  1.766   7.6795
  1.764   7.6830
  1.762   7.6138
  1.760   7.7109
  1.758   7.7047
  1.756   7.6714
  1.754   7.6764
  1.752   7.7961
  1.750   7.7041
  1.748   7.8000
  1.746   7.7734
  1.744   7.7278
  1.742   7.6908
  1.740   7.8095
  1.738   7.8319
  1.736   7.7529
  1.734   7.7844
  1.732   7.6869
  1.730   7.6804
  1.728   7.7675
  1.726   7.7130
  1.724   7.7151
  1.722   7.7915
  1.720   7.6670
  1.718   7.7174
  1.716   7.6411
  1.714   7.6429
  1.712   7.5307
  1.710   7.7403
  1.708   7.5519
  1.706   7.4763
  1.704   7.3649
  1.702   7.3740
  1.700   7.4435
  1.698   7.2456
  1.696   7.3264
  1.694   7.3149
  1.692   7.2840
  1.690   7.3194
  1.688   7.2868
  1.686   7.2341
  1.684   7.2861
  1.682   7.2238
  1.680   7.1174
  1.678   7.1101
  1.676   7.1622
  1.674   7.0927
  1.672   7.1556
  1.670   7.1367
  1.668   7.0867
  1.666   7.1404
  1.664   7.1741
  1.662   7.1493
  1.660   7.1443
  1.658   7.1907
  1.656   7.2528
  1.654   7.2174
  1.652   7.2055
  1.650   7.2484
  1.648   7.3229
  1.646   7.3232
  1.644   7.4105
  1.642   7.3982
  1.640   7.5114
  1.638   7.5474
  1.636   7.7416
  1.634   7.7479
  1.632   7.7070
  1.630   7.9017
  1.628   8.0356
  1.626   8.0516
  1.624   8.1349
  1.622   8.1715
  1.620   8.2757
  1.618   8.3424
  1.616   8.5019
  1.614   8.5702
  1.612   8.6183
  1.610   8.7278
  1.608   8.8088
  1.606   8.9033
  1.604   9.0090
  1.602   9.0537
  1.600   9.0765
  1.598   9.0690
  1.596   9.1256
  1.594   9.2226
  1.592   9.1850
  1.590   9.2361
  1.588   9.2807
  1.586   9.1696
  1.584   9.2025
  1.582   9.2833
  1.580   9.2025
  1.578   9.2134
  1.576   9.2090
  1.574   9.1370
  1.572   9.0824
  1.570   9.1113
  1.568   9.1471
  1.566   9.1120
  1.564   9.1172
  1.562   9.1047
  1.560   9.1304
  1.558   9.1534
  1.556   9.1638
  1.554   9.1880
  1.552   9.3105
  1.550   9.3603
  1.548   9.3746
  1.546   9.5148
  1.544   9.6258
  1.542   9.7631
  1.540   9.8608
  1.538   9.9778
  1.536  10.1029
  1.534  10.1652
  1.532  10.3602
  1.530  10.5056
  1.528  10.6143
  1.526  10.7925
  1.524  10.7461
  1.522  10.8758
  1.520  11.1383
  1.518  11.1370
  1.516  11.1932
  1.514  11.2989
  1.512  11.4409
  1.510  11.5028
  1.508  11.5066
  1.506  11.5965
  1.504  11.7373
  1.502  11.8667
  1.500  11.8423
  1.498  11.8312
  1.496  11.9331
  1.494  12.0412
  1.492  12.0082
  1.490  12.0669
  1.488  12.1245
  1.486  12.1876
  1.484  12.1267
  1.482  12.0654
  1.480  12.0333
  1.478  12.0214
  1.476  11.8690
  1.474  11.7324
  1.472  11.5473
  1.470  11.5750
  1.468  11.4543
  1.466  11.1622
  1.464  10.9671
  1.462  10.9692
  1.460  10.8293
  1.458  10.5791
  1.456  10.4619
  1.454  10.4434
  1.452  10.2980
  1.450  10.2755
  1.448  10.2094
  1.446  10.3941
  1.444  10.4099
  1.442  10.4579
  1.440  10.3230
  1.438  10.2359
  1.436   9.5785
  1.434   8.6898
  1.432   7.7511
  1.430   6.9621
  1.428   6.3589
  1.426   6.3165
  1.424   6.1863
  1.422   6.5479
  1.420   7.1445
  1.418   7.6959
  1.416   8.5752
  1.414   9.6229
  1.412  10.4061
  1.410  11.3667
  1.408  12.4305
  1.406  13.3013
  1.404  14.4512
  1.402  15.3401
  1.400  16.1589
  1.398  16.8595
  1.396  17.5193
  1.394  18.0778
  1.392  18.6004
  1.390  19.1563
  1.388  19.6318
  1.386  20.2889
  1.384  20.6638
  1.382  21.2130
  1.380  21.6850
  1.378  21.9723
  1.376  22.3261
  1.374  22.5323
  1.372  22.8257
  1.370  23.0760
  1.368  23.3415
  1.366  23.4469
  1.364  23.6248
  1.362  23.8438
  1.360  24.0870
  1.358  24.2136
  1.356  24.3679
  1.354  24.4728
  1.352  24.4924
  1.350  24.5317
  1.348  24.5603
  1.346  24.6067
  1.344  24.6016
  1.342  24.6641
  1.340  24.7125
  1.338  24.8779
  1.336  24.9712
  1.334  25.2003
  1.332  25.3394
  1.330  25.6603
  1.328  25.9016
  1.326  25.9959
  1.324  26.2230
  1.322  26.3950
  1.320  26.6278
  1.318  26.8888
  1.316  26.8870
  1.314  27.2331
  1.312  27.3288
  1.310  27.6245
  1.308  27.6417
  1.306  27.7387
  1.304  27.9065
  1.302  27.9771
  1.300  27.9948
  1.298  28.1403
  1.296  28.3340
  1.294  28.3111
  1.292  28.3614
  1.290  28.5250
  1.288  28.6243
  1.286  28.5872
  1.284  28.6083
  1.282  28.6000
  1.280  28.7461
  1.278  28.7406
  1.276  28.8735
  1.274  28.9179
  1.272  28.9684
  1.270  28.9259
  1.268  28.9954
  1.266  29.0531
  1.264  28.9672
  1.262  28.9894
  1.260  29.0277
  1.258  29.0556
  1.256  28.9833
  1.254  29.1592
  1.252  29.0544
  1.250  28.9863
  1.248  29.0857
  1.246  28.9611
  1.244  28.9342
  1.242  28.9638
  1.240  29.0167
  1.238  28.8270
  1.236  28.7833
  1.234  28.7728
  1.232  28.7262
  1.230  28.7200
  1.228  28.8267
  1.226  28.8906
  1.224  28.9995
  1.222  29.1917
  1.220  29.4028
  1.218  29.3903
  1.216  29.5186
  1.214  29.7054
  1.212  29.6645
  1.210  29.7654
  1.208  29.8827
  1.206  29.7767
  1.204  29.7306
  1.202  29.7770
  1.200  29.7635
  1.198  29.6819
  1.196  29.7372
  1.194  29.7325
  1.192  29.7941
  1.190  29.6828
  1.188  29.6637
  1.186  29.6878
  1.184  29.6693
  1.182  29.7897
  1.180  29.9256
  1.178  29.9168
  1.176  30.0995
  1.174  30.2327
  1.172  30.3671
  1.170  30.4481
  1.168  30.6068
  1.166  30.7840
  1.164  30.8252
  1.162  30.9707
  1.160  31.1300
  1.158  31.1563
  1.156  31.3454
  1.154  31.4383
  1.152  31.3909
  1.150  31.5335
  1.148  31.6117
  1.146  31.6676
  1.144  31.7471
  1.142  31.7687
  1.140  31.8465
  1.138  31.8065
  1.136  31.9173
  1.134  32.0274
  1.132  32.0026
  1.130  32.0046
  1.128  32.0313
  1.126  32.0845
  1.124  32.0495
  1.122  32.0701
  1.120  31.9984
  1.118  32.0807
  1.116  31.9755
  1.114  32.0734
  1.112  32.1365
  1.110  32.2266
  1.108  32.1177
  1.106  32.0981
  1.104  32.1181
  1.102  32.1398
  1.100  32.1877
  1.098  32.1480
  1.096  32.1925
  1.094  32.1953
  1.092  32.1402
  1.090  32.2821
  1.088  32.1372
  1.086  32.2154
  1.084  32.2065
  1.082  32.2683
  1.080  32.3340
  1.078  32.4105
  1.076  32.2895
  1.074  32.4240
  1.072  32.3290
  1.070  32.3803
  1.068  32.4098
  1.066  32.3922
  1.064  32.3577
  1.062  32.4029
  1.060  32.4393
  1.058  32.4511
  1.056  32.4529
  1.054  32.3569
  1.052  32.3416
  1.050  32.5104
  1.048  32.4953
  1.046  32.5595
  1.044  32.4189
  1.042  32.4200
  1.040  32.4614
  1.038  32.4633
  1.036  32.4080
  1.034  32.3148
  1.032  32.3184
  1.030  32.2807
  1.028  32.2438
  1.026  32.2451
  1.024  32.2633
  1.022  32.2158
  1.020  32.1892
  1.018  32.2321
  1.016  32.2932
  1.014  32.1696
  1.012  32.0588
  1.010  31.9478
  1.008  31.8840
  1.006  31.9038
  1.004  31.8833
  1.002  31.8045
  1.000  31.6946
  0.998  31.6781
  0.996  31.5695
  0.994  31.3869
  0.992  31.2962
  0.990  31.1419
  0.988  30.9175
  0.986  30.6946
  0.984  30.3626
  0.982  30.0704
  0.980  29.7200
  0.978  29.3350
  0.976  29.0473
  0.974  29.0212
  0.972  29.1821
  0.970  29.5065
  0.968  29.9850
  0.966  30.5358
  0.964  30.9664
  0.962  31.2982
  0.960  31.6015
  0.958  31.7884
  0.956  31.9929
  0.954  32.2003
  0.952  32.2679
  0.950  32.3301
  0.948  32.4132
  0.946  32.4679
  0.944  32.4961
  0.942  32.5133
  0.940  32.5766
  0.938  32.5789
  0.936  32.6012
  0.934  32.6197
  0.932  32.6233
  0.930  32.6543
  0.928  32.6872
  0.926  32.7061
  0.924  32.7068
  0.922  32.7348
  0.920  32.7780
  0.918  32.7803
  0.916  32.8690
  0.914  32.9019
  0.912  32.8081
  0.910  32.8411
  0.908  32.8410
  0.906  32.8702
  0.904  32.9150
  0.902  32.9263
  0.900  32.8981
  0.898  33.0050
  0.896  32.9188
  0.894  32.8578
  0.892  32.9322
  0.890  33.0975
  0.888  33.0817
  0.886  32.9561
  0.884  33.0284
  0.882  32.9215
  0.880  33.0250
  0.878  33.1319
  0.876  33.1802
  0.874  33.3234
  0.872  33.1254
  0.870  32.8186
  0.868  33.0468
  0.866  33.1502
  0.864  32.9801
  0.862  33.0146
  0.860  32.8773
  0.858  33.2768
  0.856  33.6062
  0.854  33.6397
  0.852  33.5900
  0.850  33.5938
  0.848  33.6497
  0.846  33.6499
  0.844  33.6502
  0.842  33.6807
  0.840  33.6741
  0.838  33.6625
  0.836  33.6653
  0.834  33.6875
  0.832  33.6695
  0.830  33.6442
  0.828  33.6527
  0.826  33.6674
  0.824  33.6811
  0.822  33.6563
  0.820  33.6384
  0.818  33.6420
  0.816  33.6412
  0.814  33.6040
  0.812  33.5631
  0.810  33.5477
  0.808  33.5389
  0.806  33.5357
  0.804  33.4825
  0.802  33.4792
  0.800  33.4504
  0.798  33.4432
  0.796  33.4062
  0.794  33.3573
  0.792  33.3545
  0.790  33.3013
  0.788  33.2655
  0.786  33.2332
  0.784  33.1960
  0.782  33.1650
  0.780  33.1221
  0.778  33.0918
  0.776  33.0453
  0.774  32.9967
  0.772  32.9609
  0.770  32.9007
  0.768  32.8536
  0.766  32.8040
  0.764  32.7514
  0.762  32.7178
  0.760  32.6722
  0.758  32.6298
  0.756  32.5836
  0.754  32.5164
  0.752  32.4661
  0.750  32.4161
  0.748  32.3985
  0.746  32.3637
  0.744  32.3350
  0.742  32.3555
  0.740  32.3518
  0.738  32.3527
  0.736  32.3644
  0.734  32.3575
  0.732  32.3460
  0.730  32.3237
  0.728  32.3156
  0.726  32.3118
  0.724  32.2780
  0.722  32.2684
  0.720  32.2543
  0.718  32.2423
  0.716  32.2209
  0.714  32.2229
  0.712  32.2119
  0.710  32.2000
  0.708  32.1856
  0.706  32.1668
  0.704  32.1729
  0.702  32.1658
  0.700  32.1681
  0.698  32.1561
  0.696  32.1286
  0.694  32.1147
  0.692  32.1070
  0.690  32.1230
  0.688  32.1062
  0.686  32.0911
  0.684  32.0937
  0.682  32.0918
  0.680  32.0728
  0.678  32.0662
  0.676  32.0624
  0.674  32.0549
  0.672  32.0608
  0.670  32.0588
  0.668  32.0374
  0.666  32.0221
  0.664  32.0128
  0.662  32.0270
  0.660  32.0077
  0.658  31.9926
  0.656  32.0009
  0.654  31.9900
  0.652  31.9772
  0.650  31.9677
  0.648  31.9494
  0.646  31.9436
  0.644  31.9454
  0.642  31.9225
  0.640  31.9209
  0.638  31.9084
  0.636  31.8897
  0.634  31.8602
  0.632  31.8299
  0.630  31.8184
  0.628  31.8041
  0.626  31.8151
  0.624  31.8082
  0.622  31.8117
  0.620  31.8062
  0.618  31.7928
  0.616  31.7679
  0.614  31.7693
  0.612  31.7586
  0.610  31.7323
  0.608  31.7312
  0.606  31.7062
  0.604  31.6924
  0.602  31.6708
  0.600  31.6730
  0.598  31.6541
  0.596  31.6332
  0.594  31.6056
  0.592  31.6113
  0.590  31.5805
  0.588  31.5537
  0.586  31.5415
  0.584  31.5185
  0.582  31.4736
  0.580  31.4429
  0.578  31.4203
  0.576  31.3809
  0.574  31.3381
  0.572  31.3226
  0.570  31.2698
  0.568  31.2345
  0.566  31.1924
  0.564  31.1392
  0.562  31.0994
  0.560  31.0333
  0.558  30.9786
  0.556  30.9302
  0.554  30.8620
  0.552  30.8140
  0.550  30.7531
  0.548  30.6849
  0.546  30.6306
  0.544  30.5663
  0.542  30.4950
  0.540  30.4109
  0.538  30.3471
  0.536  30.2553
  0.534  30.1708
  0.532  30.0810
  0.530  29.9917
  0.528  29.8979
  0.526  29.7965
  0.524  29.6862
  0.522  29.6009
  0.520  29.5032
  0.518  29.3933
  0.516  29.2916
  0.514  29.1844
  0.512  29.0725
  0.510  28.9653
  0.508  28.8649
  0.506  28.7561
  0.504  28.6567
  0.502  28.5592
  0.500  28.4661
  0.498  28.3668
  0.496  28.2721
  0.494  28.1822
  0.492  28.0876
  0.490  28.0080
  0.488  27.9149
  0.486  27.8250
  0.484  27.7216
  0.482  27.6327
  0.480  27.5507
  0.478  27.4674
  0.476  27.3902
  0.474  27.3067
  0.472  27.2187
  0.470  27.1383
  0.468  27.0562
  0.466  26.9626
  0.464  26.8685
  0.462  26.7659
  0.460  26.6636
  0.458  26.5546
  0.456  26.4265
  0.454  26.3234
  0.452  26.2069
  0.450  26.0829
  0.448  25.9571
  0.446  25.8298
  0.444  25.6964
  0.442  25.5642
  0.440  25.4405
  0.438  25.3037
  0.436  25.1634
  0.434  25.0272
  0.432  24.8932
  0.430  24.7613
  0.428  24.6231
  0.426  24.4971
  0.424  24.3673
  0.422  24.2313
  0.420  24.1030
  0.418  23.9709
  0.416  23.8359
  0.414  23.7072
  0.412  23.5669
  0.410  23.4252
  0.408  23.2976
  0.406  23.1806
  0.404  23.0514
  0.402  22.9263
  0.400  22.8100
