Name: Gaylussite Na2Ca(CO3)2 * 5H2O
Type: Mineral
Class: Borate
Subclass: None
Particle Size: Unsieved coarse powder
Sample No.: NMNH 102876-2
Owner: Smithsonian Institute, National Museum of Nat. History
Wavelength range: 0.40 - 14.05 um
Origin: Searles Lake, CA

Description: Gaylussite powder from Searles Lake, CA





Measurement: Directional Hemispherical Reflectance
First Column: X
Second Column: Y
X Units: Wavelength (micrometers)
Y Units: Reflectance (percent)
First X Value: 14.05105
Last X Value: 0.40000
Number of X Values: 2756
Additional Information: None

 14.051   2.5132
 14.013   2.3381
 13.975   2.2969
 13.938   2.2866
 13.900   2.3690
 13.863   2.2351
 13.826   2.1527
 13.790   1.9673
 13.753   1.8231
 13.717   1.6480
 13.680   1.6686
 13.644   1.5965
 13.609   1.6480
 13.573   1.6274
 13.538   1.6377
 13.502   1.6068
 13.467   1.6892
 13.432   1.6686
 13.398   1.7613
 13.363   1.7201
 13.329   1.7407
 13.295   1.7098
 13.261   1.7510
 13.227   1.6995
 13.193   1.7098
 13.160   1.7304
 13.126   1.7922
 13.093   1.7407
 13.060   1.8025
 13.027   1.7922
 12.995   1.8334
 12.962   1.8746
 12.930   1.9570
 12.898   1.8952
 12.866   1.8746
 12.834   1.7819
 12.802   1.8746
 12.771   1.9055
 12.739   1.9261
 12.708   1.9261
 12.677   1.9982
 12.646   1.9261
 12.616   1.9364
 12.585   1.9364
 12.554   1.9776
 12.524   1.9364
 12.494   1.9879
 12.464   1.9673
 12.434   1.9776
 12.404   1.8952
 12.375   1.9055
 12.345   1.8231
 12.316   1.8128
 12.287   1.8025
 12.258   1.8334
 12.229   1.7922
 12.200   1.8231
 12.171   1.8231
 12.143   1.8849
 12.115   1.8849
 12.086   1.9879
 12.058   1.9673
 12.030   2.0394
 12.002   2.0806
 11.975   2.1630
 11.947   2.1424
 11.920   2.1939
 11.892   2.2660
 11.865   2.3793
 11.838   2.3690
 11.811   2.4617
 11.784   2.5029
 11.757   2.5750
 11.731   2.6265
 11.704   2.6677
 11.678   2.6471
 11.652   2.7398
 11.626   2.7604
 11.600   2.8531
 11.574   2.9046
 11.548   3.0385
 11.522   3.1106
 11.497   3.2651
 11.471   3.4608
 11.446   3.7389
 11.421   3.9655
 11.396   4.3363
 11.371   4.7483
 11.346   5.1603
 11.321   5.1603
 11.297   4.6041
 11.272   3.5226
 11.248   2.6162
 11.223   2.1321
 11.199   1.9879
 11.175   1.8643
 11.151   1.8437
 11.127   1.8540
 11.103   1.9158
 11.079   1.8952
 11.056   1.9055
 11.032   1.8025
 11.009   1.7716
 10.985   1.6892
 10.962   1.6480
 10.939   1.5862
 10.916   1.5038
 10.893   1.4008
 10.870   1.4317
 10.848   1.4111
 10.825   1.4111
 10.802   1.3390
 10.780   1.3596
 10.758   1.3493
 10.735   1.3699
 10.713   1.3287
 10.691   1.3081
 10.669   1.2875
 10.647   1.3184
 10.625   1.3390
 10.604   1.4008
 10.582   1.4111
 10.560   1.4832
 10.539   1.4729
 10.518   1.4832
 10.496   1.4832
 10.475   1.5244
 10.454   1.5038
 10.433   1.5656
 10.412   1.6068
 10.391   1.6686
 10.370   1.7098
 10.350   1.7922
 10.329   1.7613
 10.309   1.7922
 10.288   1.7510
 10.268   1.8025
 10.247   1.8437
 10.227   1.8849
 10.207   1.8540
 10.187   1.8746
 10.167   1.8849
 10.147   1.9673
 10.127   2.0085
 10.108   2.0291
 10.088   2.0291
 10.068   1.9982
 10.049   1.9879
 10.029   2.1115
 10.010   2.1836
  9.991   2.2454
  9.972   2.1836
  9.952   2.1630
  9.933   2.2042
  9.914   2.2351
  9.895   2.2042
  9.877   2.2660
  9.858   2.2660
  9.839   2.3484
  9.821   2.3690
  9.802   2.4102
  9.783   2.4205
  9.765   2.4308
  9.747   2.3793
  9.728   2.4617
  9.710   2.4514
  9.692   2.4926
  9.674   2.4823
  9.656   2.5132
  9.638   2.5338
  9.620   2.5750
  9.602   2.5441
  9.585   2.6162
  9.567   2.6162
  9.549   2.6265
  9.532   2.6162
  9.514   2.6883
  9.497   2.6780
  9.479   2.6471
  9.462   2.6162
  9.445   2.6986
  9.428   2.7295
  9.411   2.7604
  9.394   2.6883
  9.377   2.7398
  9.360   2.7089
  9.343   2.6265
  9.326   2.5235
  9.309   2.6059
  9.293   2.6883
  9.276   2.7604
  9.259   2.7810
  9.243   2.8016
  9.226   2.7810
  9.210   2.7913
  9.194   2.7913
  9.178   2.8634
  9.161   2.8634
  9.145   2.8840
  9.129   2.8428
  9.113   2.8840
  9.097   2.9046
  9.081   2.9355
  9.065   2.8325
  9.049   2.8325
  9.034   2.8737
  9.018   2.9252
  9.002   2.9252
  8.987   2.9664
  8.971   2.9767
  8.956   3.0385
  8.940   2.9767
  8.925   2.9767
  8.909   2.9664
  8.894   2.9664
  8.879   2.9252
  8.864   3.0076
  8.849   2.9561
  8.834   2.9870
  8.819   3.0591
  8.804   3.1003
  8.789   3.0694
  8.774   3.0591
  8.759   3.0076
  8.744   3.0488
  8.730   3.0694
  8.715   3.1003
  8.700   3.0488
  8.686   3.0900
  8.671   3.0694
  8.657   3.1209
  8.642   3.1312
  8.628   3.1106
  8.614   3.0797
  8.599   3.1209
  8.585   3.1518
  8.571   3.1930
  8.557   3.1827
  8.543   3.1621
  8.529   3.1312
  8.515   3.1312
  8.501   3.1518
  8.487   3.1930
  8.473   3.1827
  8.459   3.2445
  8.445   3.2548
  8.431   3.2342
  8.418   3.2342
  8.404   3.2857
  8.391   3.2548
  8.377   3.2857
  8.363   3.2960
  8.350   3.3166
  8.337   3.2960
  8.323   3.3475
  8.310   3.2960
  8.297   3.2754
  8.283   3.2960
  8.270   3.3372
  8.257   3.3372
  8.244   3.3784
  8.231   3.3990
  8.218   3.4093
  8.205   3.3372
  8.192   3.3578
  8.179   3.3681
  8.166   3.3269
  8.153   3.2960
  8.140   3.2857
  8.128   3.2754
  8.115   3.3166
  8.102   3.2857
  8.090   3.3269
  8.077   3.3578
  8.064   3.4093
  8.052   3.4093
  8.039   3.3887
  8.027   3.3166
  8.015   3.2960
  8.002   3.2548
  7.990   3.2651
  7.978   3.2857
  7.965   3.3475
  7.953   3.3475
  7.941   3.3578
  7.929   3.3681
  7.917   3.3990
  7.905   3.3269
  7.893   3.2960
  7.881   3.3475
  7.869   3.3681
  7.857   3.3990
  7.845   3.4196
  7.833   3.3578
  7.821   3.3990
  7.809   3.3784
  7.798   3.3578
  7.786   3.3475
  7.774   3.4093
  7.763   3.4299
  7.751   3.4299
  7.739   3.4093
  7.728   3.4402
  7.716   3.4299
  7.705   3.4608
  7.694   3.5123
  7.682   3.5329
  7.671   3.4711
  7.659   3.4402
  7.648   3.4402
  7.637   3.4814
  7.626   3.5226
  7.614   3.5638
  7.603   3.5535
  7.592   3.5535
  7.581   3.5535
  7.570   3.6050
  7.559   3.5947
  7.548   3.6153
  7.537   3.6153
  7.526   3.6565
  7.515   3.6874
  7.504   3.7286
  7.493   3.6977
  7.483   3.7080
  7.472   3.7286
  7.461   3.7904
  7.450   3.7904
  7.440   3.8522
  7.429   3.8831
  7.418   3.9449
  7.408   3.9655
  7.397   3.9861
  7.387   4.0170
  7.376   4.0891
  7.366   4.1406
  7.355   4.2127
  7.345   4.2333
  7.334   4.3054
  7.324   4.3363
  7.314   4.3878
  7.303   4.4393
  7.293   4.5011
  7.283   4.5217
  7.273   4.6350
  7.263   4.7895
  7.252   4.9337
  7.242   5.0470
  7.232   5.1603
  7.222   5.2633
  7.212   5.4075
  7.202   5.5826
  7.192   5.8298
  7.182   6.0873
  7.172   6.3654
  7.162   6.6641
  7.152   7.0246
  7.143   7.3645
  7.133   7.7559
  7.123   8.0855
  7.113   8.4151
  7.103   8.7653
  7.094   9.0743
  7.084   9.3421
  7.074   9.6202
  7.065   9.8777
  7.055  10.1661
  7.046  10.4339
  7.036  10.7326
  7.026  10.9386
  7.017  11.1652
  7.007  11.4433
  6.998  11.7008
  6.989  11.8965
  6.979  12.0922
  6.970  12.2673
  6.960  12.4527
  6.951  12.6072
  6.942  12.7205
  6.932  12.7411
  6.923  12.6896
  6.914  12.6278
  6.905  12.5145
  6.896  12.3703
  6.886  12.2673
  6.877  12.1334
  6.868  11.9583
  6.859  11.7111
  6.850  11.4330
  6.841  11.1652
  6.832  10.9283
  6.823  10.6193
  6.814  10.1661
  6.805   9.6408
  6.796   9.0537
  6.787   8.4048
  6.778   7.6735
  6.770   7.0555
  6.761   6.4684
  6.752   5.9019
  6.743   5.4075
  6.734   4.9028
  6.726   4.4496
  6.717   4.0170
  6.708   3.6050
  6.700   3.2136
  6.691   2.8634
  6.682   2.5338
  6.674   2.2557
  6.665   2.0188
  6.657   1.8025
  6.648   1.6274
  6.640   1.5038
  6.631   1.3596
  6.623   1.2772
  6.614   1.1948
  6.606   1.0918
  6.597   1.0403
  6.589   1.0300
  6.581   0.9476
  6.572   0.8858
  6.564   0.8652
  6.556   0.8652
  6.547   0.8446
  6.539   0.8240
  6.531   0.7416
  6.523   0.7622
  6.514   0.8137
  6.506   0.8240
  6.498   0.7931
  6.490   0.7725
  6.482   0.7828
  6.474   0.8034
  6.466   0.8034
  6.458   0.8034
  6.450   0.8137
  6.442   0.8549
  6.434   0.8652
  6.426   0.8652
  6.418   0.8240
  6.410   0.8549
  6.402   0.8858
  6.394   0.8755
  6.386   0.8858
  6.378   0.9167
  6.370   0.9270
  6.363   0.9373
  6.355   0.8961
  6.347   0.9270
  6.339   0.9682
  6.332   0.9682
  6.324   0.9579
  6.316   0.9991
  6.308   0.9785
  6.301   0.9991
  6.293   0.9991
  6.286   1.0197
  6.278   1.0403
  6.270   1.0712
  6.263   1.0918
  6.255   1.0609
  6.248   1.0815
  6.240   1.1330
  6.233   1.1536
  6.225   1.1433
  6.218   1.0918
  6.210   1.1227
  6.203   1.1433
  6.195   1.1330
  6.188   1.1433
  6.181   1.1536
  6.173   1.1227
  6.166   1.1124
  6.159   1.1021
  6.151   1.0918
  6.144   1.0712
  6.137   1.0403
  6.130   1.0403
  6.122   1.0506
  6.115   1.0506
  6.108   1.0609
  6.101   1.0609
  6.094   1.0815
  6.086   1.1227
  6.079   1.1227
  6.072   1.1124
  6.065   1.1536
  6.058   1.1536
  6.051   1.1330
  6.044   1.1433
  6.037   1.1536
  6.030   1.1433
  6.023   1.1330
  6.016   1.1021
  6.009   1.0815
  6.002   1.0918
  5.995   1.0506
  5.988   1.0197
  5.981   0.9888
  5.974   0.9682
  5.967   0.9888
  5.960   0.9785
  5.954   0.9167
  5.947   0.8961
  5.940   0.8961
  5.933   0.8343
  5.926   0.8446
  5.920   0.8549
  5.913   0.8446
  5.906   0.8446
  5.899   0.8343
  5.893   0.8343
  5.886   0.8446
  5.879   0.8549
  5.873   0.8755
  5.866   0.8652
  5.859   0.8961
  5.853   0.9064
  5.846   0.9270
  5.840   0.9270
  5.833   0.9064
  5.827   0.8549
  5.820   0.8961
  5.813   0.9270
  5.807   0.9270
  5.800   0.9270
  5.794   0.9373
  5.788   0.9167
  5.781   0.9270
  5.775   0.9064
  5.768   0.9167
  5.762   1.0094
  5.755   1.0403
  5.749   0.9991
  5.743   0.9888
  5.736   0.9888
  5.730   1.0094
  5.724   1.0403
  5.717   1.0712
  5.711   1.0609
  5.705   1.0506
  5.698   1.0506
  5.692   1.0815
  5.686   1.0918
  5.680   1.1124
  5.674   1.1330
  5.667   1.1433
  5.661   1.1227
  5.655   1.1433
  5.649   1.1536
  5.643   1.1845
  5.637   1.1845
  5.630   1.1948
  5.624   1.1948
  5.618   1.2154
  5.612   1.2360
  5.606   1.2257
  5.600   1.2154
  5.594   1.2566
  5.588   1.2669
  5.582   1.2669
  5.576   1.2566
  5.570   1.2566
  5.564   1.2669
  5.558   1.2875
  5.552   1.3081
  5.546   1.3287
  5.540   1.3287
  5.534   1.3596
  5.528   1.3596
  5.523   1.3596
  5.517   1.3699
  5.511   1.4008
  5.505   1.4214
  5.499   1.4523
  5.493   1.4626
  5.487   1.4626
  5.482   1.4626
  5.476   1.4935
  5.470   1.5244
  5.464   1.4935
  5.459   1.4626
  5.453   1.5141
  5.447   1.5656
  5.441   1.5965
  5.436   1.6068
  5.430   1.5862
  5.424   1.5553
  5.419   1.5656
  5.413   1.6171
  5.407   1.6789
  5.402   1.7201
  5.396   1.6995
  5.390   1.6995
  5.385   1.7201
  5.379   1.7407
  5.374   1.7304
  5.368   1.7304
  5.363   1.7819
  5.357   1.8231
  5.352   1.8746
  5.346   1.9158
  5.341   1.9364
  5.335   1.9364
  5.330   1.9158
  5.324   1.9261
  5.319   1.9570
  5.313   1.9467
  5.308   1.9570
  5.302   1.9673
  5.297   1.9982
  5.291   2.0188
  5.286   2.0394
  5.281   2.0497
  5.275   2.0703
  5.270   2.0806
  5.265   2.0806
  5.259   2.0909
  5.254   2.0703
  5.249   2.0703
  5.243   2.1321
  5.238   2.1630
  5.233   2.1836
  5.227   2.1733
  5.222   2.1630
  5.217   2.1836
  5.212   2.2042
  5.206   2.2145
  5.201   2.2248
  5.196   2.2454
  5.191   2.2557
  5.186   2.2660
  5.180   2.3072
  5.175   2.2660
  5.170   2.2557
  5.165   2.2866
  5.160   2.2866
  5.155   2.2969
  5.150   2.2969
  5.145   2.3175
  5.139   2.3278
  5.134   2.3381
  5.129   2.3278
  5.124   2.3381
  5.119   2.3484
  5.114   2.3484
  5.109   2.3690
  5.104   2.3896
  5.099   2.3999
  5.094   2.4102
  5.089   2.3999
  5.084   2.3896
  5.079   2.3999
  5.074   2.4205
  5.069   2.4308
  5.064   2.4720
  5.059   2.4720
  5.054   2.4411
  5.049   2.4720
  5.044   2.4617
  5.040   2.4514
  5.035   2.4926
  5.030   2.5132
  5.025   2.5235
  5.020   2.5544
  5.015   2.5544
  5.010   2.5750
  5.005   2.5647
  5.001   2.5647
  4.996   2.5750
  4.991   2.5750
  4.986   2.5750
  4.981   2.5956
  4.977   2.6059
  4.972   2.5956
  4.967   2.5956
  4.962   2.5956
  4.958   2.6059
  4.953   2.6677
  4.948   2.6574
  4.943   2.6162
  4.939   2.6368
  4.934   2.6471
  4.929   2.6574
  4.925   2.6574
  4.920   2.6471
  4.915   2.6574
  4.911   2.6471
  4.906   2.6780
  4.901   2.6986
  4.897   2.7089
  4.892   2.7192
  4.888   2.6986
  4.883   2.6677
  4.878   2.6883
  4.874   2.6986
  4.869   2.6986
  4.865   2.7192
  4.860   2.7501
  4.856   2.7398
  4.851   2.7295
  4.846   2.7398
  4.842   2.6986
  4.837   2.6780
  4.833   2.6883
  4.828   2.7089
  4.824   2.7398
  4.819   2.7398
  4.815   2.7089
  4.810   2.6883
  4.806   2.6883
  4.802   2.7192
  4.797   2.6986
  4.793   2.7192
  4.788   2.7089
  4.784   2.6780
  4.779   2.6883
  4.775   2.6780
  4.771   2.6883
  4.766   2.6780
  4.762   2.6780
  4.758   2.6883
  4.753   2.7192
  4.749   2.6986
  4.744   2.6883
  4.740   2.6780
  4.736   2.6883
  4.731   2.6986
  4.727   2.6986
  4.723   2.7089
  4.719   2.7089
  4.714   2.6883
  4.710   2.6780
  4.706   2.6368
  4.701   2.6162
  4.697   2.6265
  4.693   2.6368
  4.689   2.6162
  4.684   2.5956
  4.680   2.6059
  4.676   2.5853
  4.672   2.6059
  4.668   2.6471
  4.663   2.6574
  4.659   2.6677
  4.655   2.6471
  4.651   2.5853
  4.647   2.5338
  4.643   2.5235
  4.638   2.5647
  4.634   2.5956
  4.630   2.5956
  4.626   2.5544
  4.622   2.5029
  4.618   2.4926
  4.614   2.5132
  4.610   2.5338
  4.605   2.5132
  4.601   2.4720
  4.597   2.4617
  4.593   2.4617
  4.589   2.4617
  4.585   2.4514
  4.581   2.4720
  4.577   2.4514
  4.573   2.4308
  4.569   2.4102
  4.565   2.3793
  4.561   2.3793
  4.557   2.3690
  4.553   2.3690
  4.549   2.3999
  4.545   2.3999
  4.541   2.3999
  4.537   2.3381
  4.533   2.3484
  4.529   2.3587
  4.525   2.3381
  4.521   2.3072
  4.517   2.2969
  4.513   2.3072
  4.509   2.3072
  4.505   2.2969
  4.502   2.2866
  4.498   2.2866
  4.494   2.3175
  4.490   2.2969
  4.486   2.2969
  4.482   2.3175
  4.478   2.2969
  4.474   2.2557
  4.470   2.2454
  4.467   2.2763
  4.463   2.3072
  4.459   2.2866
  4.455   2.2763
  4.451   2.2557
  4.447   2.2557
  4.444   2.2660
  4.440   2.2557
  4.436   2.2660
  4.432   2.2763
  4.428   2.2969
  4.425   2.3175
  4.421   2.3175
  4.417   2.3072
  4.413   2.2763
  4.410   2.2763
  4.406   2.2660
  4.402   2.3072
  4.398   2.3175
  4.395   2.2763
  4.391   2.2660
  4.387   2.2763
  4.384   2.3072
  4.380   2.2763
  4.376   2.2969
  4.372   2.3072
  4.369   2.3072
  4.365   2.2763
  4.361   2.2454
  4.358   2.2351
  4.354   2.2454
  4.350   2.3175
  4.347   2.3381
  4.343   2.3072
  4.340   2.2866
  4.336   2.2557
  4.332   2.2969
  4.329   2.3278
  4.325   2.3072
  4.321   2.2866
  4.318   2.2763
  4.314   2.2660
  4.311   2.2969
  4.307   2.3484
  4.304   2.3381
  4.300   2.3072
  4.296   2.2969
  4.293   2.3175
  4.289   2.2866
  4.286   2.2866
  4.282   2.2969
  4.279   2.3175
  4.275   2.2866
  4.272   2.2454
  4.268   2.2248
  4.265   2.2454
  4.261   2.2660
  4.258   2.2969
  4.254   2.3175
  4.251   2.3278
  4.247   2.2557
  4.244   2.2145
  4.240   2.2042
  4.237   2.2248
  4.233   2.2763
  4.230   2.2557
  4.226   2.2351
  4.223   2.2660
  4.219   2.2763
  4.216   2.2042
  4.213   2.1836
  4.209   2.2351
  4.206   2.2557
  4.202   2.2351
  4.199   2.1939
  4.196   2.2454
  4.192   2.2557
  4.189   2.2454
  4.185   2.2248
  4.182   2.2042
  4.179   2.2042
  4.175   2.2042
  4.172   2.2042
  4.169   2.1939
  4.165   2.1836
  4.162   2.1836
  4.159   2.2454
  4.155   2.2660
  4.152   2.2145
  4.149   2.2145
  4.145   2.2145
  4.142   2.2248
  4.139   2.2660
  4.135   2.2763
  4.132   2.2042
  4.129   2.1733
  4.126   2.2248
  4.122   2.2351
  4.119   2.2145
  4.116   2.2351
  4.112   2.2145
  4.109   2.2145
  4.106   2.2454
  4.103   2.2557
  4.099   2.2866
  4.096   2.2969
  4.093   2.2557
  4.090   2.2351
  4.086   2.1836
  4.083   2.1424
  4.080   2.1630
  4.077   2.1836
  4.074   2.1630
  4.070   2.1630
  4.067   2.1733
  4.064   2.1939
  4.061   2.1527
  4.058   2.1321
  4.055   2.1218
  4.051   2.1424
  4.048   2.1630
  4.045   2.1527
  4.042   2.1424
  4.039   2.1527
  4.036   2.1733
  4.032   2.1836
  4.029   2.1630
  4.026   2.1321
  4.023   2.1218
  4.020   2.1630
  4.017   2.1527
  4.014   2.1218
  4.011   2.1321
  4.008   2.1733
  4.004   2.1218
  4.001   2.0806
  3.998   2.1115
  3.995   2.1218
  3.992   2.0909
  3.989   2.1012
  3.986   2.0909
  3.983   2.1012
  3.980   2.1115
  3.977   2.1115
  3.974   2.1424
  3.971   2.1527
  3.968   2.1630
  3.965   2.1527
  3.962   2.1424
  3.959   2.2042
  3.956   2.1733
  3.953   2.1836
  3.950   2.1836
  3.947   2.2042
  3.944   2.2145
  3.941   2.2454
  3.938   2.2145
  3.935   2.1939
  3.932   2.1630
  3.929   2.1836
  3.926   2.2248
  3.923   2.2557
  3.920   2.2454
  3.917   2.2660
  3.914   2.2351
  3.911   2.2454
  3.908   2.2763
  3.905   2.2763
  3.902   2.2454
  3.899   2.2557
  3.896   2.2866
  3.893   2.3278
  3.890   2.2660
  3.887   2.2042
  3.884   2.1733
  3.882   2.1939
  3.879   2.2145
  3.876   2.2557
  3.873   2.2763
  3.870   2.2351
  3.867   2.1733
  3.864   2.2454
  3.861   2.2763
  3.858   2.2351
  3.856   2.2660
  3.853   2.3175
  3.850   2.2557
  3.847   2.2557
  3.844   2.2969
  3.841   2.3072
  3.838   2.2351
  3.836   2.2042
  3.833   2.2248
  3.830   2.2145
  3.827   2.1630
  3.824   2.2042
  3.822   2.2969
  3.819   2.3793
  3.816   2.3381
  3.813   2.2969
  3.810   2.2248
  3.807   2.2042
  3.805   2.2145
  3.802   2.1939
  3.799   2.2145
  3.796   2.2454
  3.794   2.2351
  3.791   2.2351
  3.788   2.2042
  3.785   2.2248
  3.782   2.2454
  3.780   2.2660
  3.777   2.3072
  3.774   2.2969
  3.771   2.2557
  3.769   2.2248
  3.766   2.2248
  3.763   2.2866
  3.761   2.2969
  3.758   2.2454
  3.755   2.1836
  3.752   2.2042
  3.750   2.2145
  3.747   2.1630
  3.744   2.1630
  3.742   2.2351
  3.739   2.2351
  3.736   2.2248
  3.733   2.2454
  3.731   2.2557
  3.728   2.2248
  3.725   2.2763
  3.723   2.2351
  3.720   2.2042
  3.717   2.1733
  3.715   2.2145
  3.712   2.2248
  3.709   2.2145
  3.707   2.2145
  3.704   2.2248
  3.702   2.2145
  3.699   2.2454
  3.696   2.2248
  3.694   2.1733
  3.691   2.1527
  3.688   2.1733
  3.686   2.2454
  3.683   2.2866
  3.680   2.1939
  3.678   2.1630
  3.675   2.1939
  3.673   2.2145
  3.670   2.2248
  3.667   2.2351
  3.665   2.2248
  3.662   2.2248
  3.660   2.1733
  3.657   2.1836
  3.655   2.2248
  3.652   2.2042
  3.649   2.2145
  3.647   2.2145
  3.644   2.1733
  3.642   2.1836
  3.639   2.1939
  3.637   2.2145
  3.634   2.2145
  3.632   2.1939
  3.629   2.1836
  3.626   2.1527
  3.624   2.1012
  3.621   2.1424
  3.619   2.1424
  3.616   2.1424
  3.614   2.1836
  3.611   2.2454
  3.609   2.1939
  3.606   2.1836
  3.604   2.1836
  3.601   2.2145
  3.599   2.1939
  3.596   2.1939
  3.594   2.1836
  3.591   2.1939
  3.589   2.1836
  3.586   2.1939
  3.584   2.1424
  3.581   2.0703
  3.579   2.1012
  3.576   2.2042
  3.574   2.1939
  3.571   2.2145
  3.569   2.1939
  3.567   2.1424
  3.564   2.1424
  3.562   2.1939
  3.559   2.1630
  3.557   2.1939
  3.554   2.1424
  3.552   2.1424
  3.549   2.1733
  3.547   2.2042
  3.545   2.1424
  3.542   2.1321
  3.540   2.1218
  3.537   2.1939
  3.535   2.1733
  3.533   2.1424
  3.530   2.1321
  3.528   2.1630
  3.525   2.1733
  3.523   2.1630
  3.521   2.1321
  3.518   2.1733
  3.516   2.1424
  3.513   2.1012
  3.511   2.0806
  3.509   2.1218
  3.506   2.1424
  3.504   2.1630
  3.502   2.1733
  3.499   2.1630
  3.497   2.1424
  3.494   2.1424
  3.492   2.1115
  3.490   2.1218
  3.487   2.1218
  3.485   2.1939
  3.483   2.2351
  3.480   2.1939
  3.478   2.1424
  3.476   2.1424
  3.473   2.1218
  3.471   2.2145
  3.469   2.2145
  3.466   2.1321
  3.464   2.1630
  3.462   2.2557
  3.460   2.2454
  3.457   2.2042
  3.455   2.1733
  3.453   2.1424
  3.450   2.0909
  3.448   2.1527
  3.446   2.1630
  3.443   2.1424
  3.441   2.1321
  3.439   2.1733
  3.437   2.2042
  3.434   2.1939
  3.432   2.2145
  3.430   2.2248
  3.428   2.1424
  3.425   2.1321
  3.423   2.2351
  3.421   2.2866
  3.418   2.1939
  3.416   2.1630
  3.414   2.1218
  3.412   2.1012
  3.409   2.1424
  3.407   2.1939
  3.405   2.1939
  3.403   2.1836
  3.401   2.1630
  3.398   2.1527
  3.396   2.0909
  3.394   2.0703
  3.392   2.0394
  3.389   2.0806
  3.387   2.1012
  3.385   2.0909
  3.383   2.0600
  3.381   2.0806
  3.378   2.0600
  3.376   2.0188
  3.374   1.9879
  3.372   1.9879
  3.370   1.9158
  3.367   1.9467
  3.365   1.9776
  3.363   2.0085
  3.361   1.9261
  3.359   1.8849
  3.357   1.8128
  3.354   1.7201
  3.352   1.7098
  3.350   1.8334
  3.348   1.8746
  3.346   1.8952
  3.344   1.8128
  3.341   1.7304
  3.339   1.6995
  3.337   1.7613
  3.335   1.6789
  3.333   1.6583
  3.331   1.6377
  3.329   1.5862
  3.326   1.5656
  3.324   1.6274
  3.322   1.6377
  3.320   1.5862
  3.318   1.5141
  3.316   1.5244
  3.314   1.5244
  3.312   1.5553
  3.309   1.5759
  3.307   1.5759
  3.305   1.5244
  3.303   1.5244
  3.301   1.5759
  3.299   1.5759
  3.297   1.5038
  3.295   1.4832
  3.293   1.4523
  3.291   1.4523
  3.288   1.4214
  3.286   1.4317
  3.284   1.4317
  3.282   1.4729
  3.280   1.5038
  3.278   1.4729
  3.276   1.4008
  3.274   1.4111
  3.272   1.4523
  3.270   1.4111
  3.268   1.3905
  3.266   1.3699
  3.264   1.3699
  3.262   1.4111
  3.259   1.3802
  3.257   1.3699
  3.255   1.3802
  3.253   1.4008
  3.251   1.3390
  3.249   1.3390
  3.247   1.3390
  3.245   1.4008
  3.243   1.4008
  3.241   1.3596
  3.239   1.3493
  3.237   1.3493
  3.235   1.3287
  3.233   1.4420
  3.231   1.4626
  3.229   1.4008
  3.227   1.3596
  3.225   1.3802
  3.223   1.3905
  3.221   1.3802
  3.219   1.3390
  3.217   1.3699
  3.215   1.3493
  3.213   1.3184
  3.211   1.2772
  3.209   1.2566
  3.207   1.2360
  3.205   1.3081
  3.203   1.3699
  3.201   1.4008
  3.199   1.3287
  3.197   1.2875
  3.195   1.2875
  3.193   1.3493
  3.191   1.3493
  3.189   1.3184
  3.187   1.3184
  3.185   1.4008
  3.183   1.3390
  3.182   1.2669
  3.180   1.2566
  3.178   1.3081
  3.176   1.3081
  3.174   1.3184
  3.172   1.3287
  3.170   1.3493
  3.168   1.3081
  3.166   1.2978
  3.164   1.3287
  3.162   1.3802
  3.160   1.3596
  3.158   1.4008
  3.156   1.3493
  3.154   1.2772
  3.152   1.2978
  3.151   1.3596
  3.149   1.3081
  3.147   1.3287
  3.145   1.3390
  3.143   1.3184
  3.141   1.2875
  3.139   1.3081
  3.137   1.3287
  3.135   1.3802
  3.133   1.3081
  3.132   1.2978
  3.130   1.3184
  3.128   1.3390
  3.126   1.3390
  3.124   1.3905
  3.122   1.3287
  3.120   1.3596
  3.118   1.3081
  3.117   1.3287
  3.115   1.3493
  3.113   1.3493
  3.111   1.3802
  3.109   1.4317
  3.107   1.3699
  3.105   1.2566
  3.103   1.2669
  3.102   1.3493
  3.100   1.3905
  3.098   1.3493
  3.096   1.2978
  3.094   1.3493
  3.092   1.3287
  3.091   1.3493
  3.089   1.3596
  3.087   1.3493
  3.085   1.3596
  3.083   1.3905
  3.081   1.3802
  3.079   1.4008
  3.078   1.3184
  3.076   1.2566
  3.074   1.2566
  3.072   1.3081
  3.070   1.3699
  3.069   1.3802
  3.067   1.3287
  3.065   1.3596
  3.063   1.3081
  3.061   1.3081
  3.060   1.2772
  3.058   1.2463
  3.056   1.2051
  3.054   1.2566
  3.052   1.4008
  3.051   1.4111
  3.049   1.4008
  3.047   1.4214
  3.045   1.3699
  3.043   1.3184
  3.042   1.2154
  3.040   1.1639
  3.038   1.1330
  3.036   1.1639
  3.034   1.1742
  3.033   1.1536
  3.031   1.1536
  3.029   1.2257
  3.027   1.3493
  3.026   1.4317
  3.024   1.4111
  3.022   1.2875
  3.020   1.1639
  3.019   1.2360
  3.017   1.3081
  3.015   1.3596
  3.013   1.2669
  3.012   1.2772
  3.010   1.3184
  3.008   1.3081
  3.006   1.2875
  3.005   1.3287
  3.003   1.3081
  3.001   1.2978
  2.999   1.2669
  2.998   1.3493
  2.996   1.2154
  2.994   1.2051
  2.992   1.2669
  2.991   1.2257
  2.989   1.0918
  2.987   1.1330
  2.986   1.0300
  2.984   0.9682
  2.982   0.9476
  2.980   0.9270
  2.979   0.9579
  2.977   1.0197
  2.975   1.0300
  2.974   0.9682
  2.972   0.9785
  2.970   0.9991
  2.968   0.9888
  2.967   0.9476
  2.965   0.9064
  2.963   0.9476
  2.962   0.8240
  2.960   0.8137
  2.958   0.9270
  2.957   0.9064
  2.955   0.7313
  2.953   0.7828
  2.952   0.8549
  2.950   0.9476
  2.948   0.9270
  2.947   0.9476
  2.945   0.9167
  2.943   0.9167
  2.942   0.8961
  2.940   0.8961
  2.938   0.8858
  2.937   0.8961
  2.935   0.8549
  2.933   0.9579
  2.932   0.9579
  2.930   0.8961
  2.928   0.9476
  2.927   0.9991
  2.925   0.9476
  2.923   0.9991
  2.922   0.9476
  2.920   0.9579
  2.918   0.8343
  2.917   0.9167
  2.915   1.0094
  2.913   1.0094
  2.912   1.0403
  2.910   1.0403
  2.909   0.8858
  2.907   0.7931
  2.905   0.8652
  2.904   0.9682
  2.902   0.9270
  2.900   0.9579
  2.899   0.9167
  2.897   0.9476
  2.896   0.9476
  2.894   0.9682
  2.892   0.8961
  2.891   0.8343
  2.889   0.8137
  2.887   0.8240
  2.886   0.8343
  2.884   0.8343
  2.883   0.8961
  2.881   1.0197
  2.879   0.9991
  2.878   0.9579
  2.876   0.9785
  2.875   1.0506
  2.873   0.8755
  2.871   0.8446
  2.870   0.9785
  2.868   1.0300
  2.867   0.9167
  2.865   0.9682
  2.864   0.9270
  2.862   0.8755
  2.860   0.9888
  2.859   1.1124
  2.857   1.0300
  2.856   0.9476
  2.854   0.8240
  2.853   0.8343
  2.851   0.8755
  2.849   0.9373
  2.848   1.0094
  2.846   1.0403
  2.845   1.1227
  2.843   1.1948
  2.842   1.1021
  2.840   1.0403
  2.838   1.0712
  2.837   1.1433
  2.835   1.1021
  2.834   1.0815
  2.832   1.0197
  2.831   1.0609
  2.829   1.1227
  2.828   1.1021
  2.826   1.0300
  2.825   1.0712
  2.823   1.1536
  2.821   1.0506
  2.820   1.0609
  2.818   1.2875
  2.817   1.3184
  2.815   1.1639
  2.814   1.0712
  2.812   1.2051
  2.811   1.2669
  2.809   1.2978
  2.808   1.3184
  2.806   1.2978
  2.805   1.2772
  2.803   1.4008
  2.802   1.3390
  2.800   1.2463
  2.799   1.3493
  2.797   1.4523
  2.796   1.4420
  2.794   1.4832
  2.793   1.5141
  2.791   1.5450
  2.790   1.5141
  2.788   1.4729
  2.787   1.4523
  2.785   1.6274
  2.784   1.6274
  2.782   1.6480
  2.781   1.6995
  2.779   1.6892
  2.778   1.6789
  2.776   1.7819
  2.775   1.7819
  2.773   1.8334
  2.772   1.9055
  2.770   1.9364
  2.769   1.9261
  2.767   1.9982
  2.766   1.9261
  2.764   1.8952
  2.763   2.0703
  2.761   2.1527
  2.760   2.1115
  2.758   2.2351
  2.757   2.2660
  2.756   2.2763
  2.754   2.1836
  2.753   2.1836
  2.751   2.3278
  2.750   2.3999
  2.748   2.3999
  2.747   2.5029
  2.745   2.5647
  2.744   2.4617
  2.742   2.4823
  2.741   2.6368
  2.740   2.6883
  2.738   2.7295
  2.737   2.8531
  2.735   2.9561
  2.734   2.9046
  2.732   2.8016
  2.731   2.8016
  2.729   2.9870
  2.728   2.9355
  2.727   2.9561
  2.725   3.0282
  2.724   3.1312
  2.722   3.0282
  2.721   3.0797
  2.719   3.2548
  2.718   3.2857
  2.717   3.2754
  2.715   3.2960
  2.714   3.2754
  2.712   3.3269
  2.711   3.5226
  2.709   3.5638
  2.708   3.4093
  2.707   3.3990
  2.705   3.4505
  2.704   3.6668
  2.702   3.6153
  2.701   3.5432
  2.700   3.4814
  2.698   3.5844
  2.697   3.6565
  2.695   3.7801
  2.694   3.7183
  2.693   3.6977
  2.691   3.8934
  2.690   4.0376
  2.688   3.9758
  2.687   4.0376
  2.686   4.0994
  2.684   4.1612
  2.683   4.2539
  2.681   4.2333
  2.680   4.1200
  2.679   4.0891
  2.677   4.1303
  2.676   4.4599
  2.675   4.5114
  2.673   4.3775
  2.672   4.3157
  2.670   4.4084
  2.669   4.4393
  2.668   4.4702
  2.666   4.4393
  2.665   4.5629
  2.664   4.5526
  2.662   4.6556
  2.661   4.6453
  2.659   4.4908
  2.658   4.4805
  2.657   4.6247
  2.655   4.6453
  2.654   4.6865
  2.653   4.7380
  2.651   4.6659
  2.650   4.5938
  2.649   4.6762
  2.647   4.7998
  2.646   4.9852
  2.645   4.9028
  2.643   4.8410
  2.642   4.6968
  2.640   4.8719
  2.639   5.0058
  2.638   4.9646
  2.636   4.9131
  2.635   4.9543
  2.634   5.0470
  2.632   5.2221
  2.631   5.0676
  2.630   4.9852
  2.628   4.9955
  2.627   5.1294
  2.626   5.1294
  2.624   5.1706
  2.623   5.2324
  2.622   5.1294
  2.620   4.9646
  2.619   5.0264
  2.618   5.2942
  2.617   5.3148
  2.615   5.2324
  2.614   5.3045
  2.613   5.2942
  2.611   5.3457
  2.610   5.3354
  2.609   5.3251
  2.607   5.1603
  2.606   5.2118
  2.605   5.3972
  2.603   5.4487
  2.602   5.3766
  2.601   5.3354
  2.599   5.3045
  2.598   5.3457
  2.597   5.3251
  2.596   5.4281
  2.594   5.4281
  2.593   5.4075
  2.592   5.2839
  2.590   5.2942
  2.589   5.2839
  2.588   5.1294
  2.586   5.1500
  2.585   5.3766
  2.584   5.4487
  2.583   5.3869
  2.581   5.2324
  2.580   5.1912
  2.579   5.2118
  2.577   5.3354
  2.576   5.2427
  2.575   5.2633
  2.574   5.3045
  2.572   5.3560
  2.571   5.3148
  2.570   5.1603
  2.569   5.0573
  2.567   5.2015
  2.566   5.1912
  2.565   5.1191
  2.563   5.2427
  2.562   5.3457
  2.561   5.1294
  2.560   5.0470
  2.558   4.9852
  2.557   5.1809
  2.556   5.3148
  2.555   5.1294
  2.553   5.0264
  2.552   5.0882
  2.551   5.0985
  2.550   5.1912
  2.548   5.2015
  2.547   5.1294
  2.546   5.0264
  2.545   4.8410
  2.543   4.8513
  2.542   5.1706
  2.541   5.1397
  2.540   5.0470
  2.538   5.1294
  2.537   5.3251
  2.536   5.3766
  2.535   5.3354
  2.533   5.1603
  2.532   5.1809
  2.531   5.0882
  2.530   5.1809
  2.528   5.2736
  2.527   5.3663
  2.526   5.2530
  2.525   5.2118
  2.524   5.2633
  2.522   5.2427
  2.521   5.2427
  2.520   5.3869
  2.519   5.2736
  2.517   5.3354
  2.516   5.4590
  2.515   5.3663
  2.514   5.2015
  2.513   5.2633
  2.511   5.2839
  2.510   5.3663
  2.509   5.3251
  2.508   5.4178
  2.506   5.5826
  2.505   5.6135
  2.504   5.3663
  2.503   5.3457
  2.502   5.4487
  2.500   5.4796
  2.500   5.4796
  2.498   5.4033
  2.496   5.5563
  2.494   5.7296
  2.492   5.4853
  2.490   5.6659
  2.488   5.4756
  2.486   5.5905
  2.484   5.5363
  2.482   5.4650
  2.480   5.6626
  2.478   5.3801
  2.476   5.5414
  2.474   5.6285
  2.472   5.6413
  2.470   5.4323
  2.468   5.4929
  2.466   5.5859
  2.464   5.4898
  2.462   5.5015
  2.460   5.4545
  2.458   5.5762
  2.456   5.6098
  2.454   5.5104
  2.452   5.4979
  2.450   5.5953
  2.448   5.6963
  2.446   5.6518
  2.444   5.8509
  2.442   5.6077
  2.440   5.9385
  2.438   5.8441
  2.436   5.9997
  2.434   5.9397
  2.432   6.0095
  2.430   6.1710
  2.428   6.2455
  2.426   6.2782
  2.424   6.1573
  2.422   6.2937
  2.420   6.4442
  2.418   6.5426
  2.416   6.6395
  2.414   6.4948
  2.412   6.6549
  2.410   6.6903
  2.408   6.8254
  2.406   6.8674
  2.404   6.8774
  2.402   7.0111
  2.400   6.9325
  2.398   6.9859
  2.396   7.0530
  2.394   7.1217
  2.392   7.1741
  2.390   7.0790
  2.388   7.2134
  2.386   7.2117
  2.384   7.3074
  2.382   7.2751
  2.380   7.3671
  2.378   7.3978
  2.376   7.3559
  2.374   7.4508
  2.372   7.5077
  2.370   7.5455
  2.368   7.6445
  2.366   7.5477
  2.364   7.5874
  2.362   7.6660
  2.360   7.6934
  2.358   7.6865
  2.356   7.7302
  2.354   7.6754
  2.352   7.7391
  2.350   7.7222
  2.348   7.7523
  2.346   7.8346
  2.344   7.7589
  2.342   7.7591
  2.340   7.7639
  2.338   7.8004
  2.336   7.7527
  2.334   7.8827
  2.332   7.8461
  2.330   7.8826
  2.328   7.9156
  2.326   7.8842
  2.324   7.9854
  2.322   8.0588
  2.320   8.0110
  2.318   8.0639
  2.316   8.1666
  2.314   8.1082
  2.312   8.1592
  2.310   8.1838
  2.308   8.2946
  2.306   8.2915
  2.304   8.3713
  2.302   8.3905
  2.300   8.4452
  2.298   8.5255
  2.296   8.4825
  2.294   8.5625
  2.292   8.6025
  2.290   8.6021
  2.288   8.6754
  2.286   8.6891
  2.284   8.7665
  2.282   8.7558
  2.280   8.7458
  2.278   8.7930
  2.276   8.8809
  2.274   8.8599
  2.272   8.8420
  2.270   8.9261
  2.268   8.9528
  2.266   8.9543
  2.264   8.9800
  2.262   8.9517
  2.260   9.0061
  2.258   9.0179
  2.256   9.1025
  2.254   9.1221
  2.252   9.0788
  2.250   9.1067
  2.248   9.1146
  2.246   9.1032
  2.244   9.1567
  2.242   9.1503
  2.240   9.1724
  2.238   9.0793
  2.236   9.0559
  2.234   9.0698
  2.232   9.0208
  2.230   8.9760
  2.228   8.9055
  2.226   8.9051
  2.224   8.8598
  2.222   8.8390
  2.220   8.8208
  2.218   8.7357
  2.216   8.6505
  2.214   8.6312
  2.212   8.5818
  2.210   8.5052
  2.208   8.4327
  2.206   8.3358
  2.204   8.3110
  2.202   8.3421
  2.200   8.2713
  2.198   8.1729
  2.196   8.1135
  2.194   8.0912
  2.192   8.0505
  2.190   8.0371
  2.188   7.9679
  2.186   7.9579
  2.184   7.9161
  2.182   7.8310
  2.180   7.8282
  2.178   7.8192
  2.176   7.8110
  2.174   7.8158
  2.172   7.7904
  2.170   7.7342
  2.168   7.7250
  2.166   7.7176
  2.164   7.6376
  2.162   7.6069
  2.160   7.6696
  2.158   7.7232
  2.156   7.6077
  2.154   7.5627
  2.152   7.6291
  2.150   7.5789
  2.148   7.5426
  2.146   7.5397
  2.144   7.5253
  2.142   7.5519
  2.140   7.5489
  2.138   7.5189
  2.136   7.5113
  2.134   7.5546
  2.132   7.4967
  2.130   7.4305
  2.128   7.4486
  2.126   7.4728
  2.124   7.4576
  2.122   7.4807
  2.120   7.4657
  2.118   7.3691
  2.116   7.4319
  2.114   7.4533
  2.112   7.4484
  2.110   7.4382
  2.108   7.4012
  2.106   7.4261
  2.104   7.3926
  2.102   7.3655
  2.100   7.3573
  2.098   7.3650
  2.096   7.3680
  2.094   7.3503
  2.092   7.3141
  2.090   7.3034
  2.088   7.3082
  2.086   7.2718
  2.084   7.3217
  2.082   7.2676
  2.080   7.2426
  2.078   7.2556
  2.076   7.2660
  2.074   7.2160
  2.072   7.2219
  2.070   7.1670
  2.068   7.1151
  2.066   7.2098
  2.064   7.1284
  2.062   7.0903
  2.060   7.1103
  2.058   7.1123
  2.056   7.0561
  2.054   7.0707
  2.052   6.9471
  2.050   7.0127
  2.048   6.9185
  2.046   6.8751
  2.044   6.8897
  2.042   6.8606
  2.040   6.7912
  2.038   6.8714
  2.036   6.7566
  2.034   6.8071
  2.032   6.7537
  2.030   6.6893
  2.028   6.6437
  2.026   6.5853
  2.024   6.6375
  2.022   6.6613
  2.020   6.5411
  2.018   6.6564
  2.016   6.4956
  2.014   6.5024
  2.012   6.4981
  2.010   6.4779
  2.008   6.4627
  2.006   6.4152
  2.004   6.4738
  2.002   6.4606
  2.000   6.3279
  1.998   6.3927
  1.996   6.3470
  1.994   6.2402
  1.992   6.2851
  1.990   6.2287
  1.988   6.1536
  1.986   6.1594
  1.984   6.0917
  1.982   6.1440
  1.980   6.0786
  1.978   6.0844
  1.976   6.1193
  1.974   6.0147
  1.972   6.0939
  1.970   6.1630
  1.968   6.1454
  1.966   6.2360
  1.964   6.2542
  1.962   6.2982
  1.960   6.2870
  1.958   6.4086
  1.956   6.4742
  1.954   6.4225
  1.952   6.5916
  1.950   6.6104
  1.948   6.6853
  1.946   6.7673
  1.944   6.8587
  1.942   6.7645
  1.940   7.0069
  1.938   7.1061
  1.936   7.1873
  1.934   7.1989
  1.932   7.2526
  1.930   7.3918
  1.928   7.5007
  1.926   7.5948
  1.924   7.5752
  1.922   7.8016
  1.920   7.8562
  1.918   7.9191
  1.916   8.0125
  1.914   8.1817
  1.912   8.1669
  1.910   8.3577
  1.908   8.3809
  1.906   8.5505
  1.904   8.7113
  1.902   8.8536
  1.900   8.8781
  1.898   9.0212
  1.896   9.1597
  1.894   9.3011
  1.892   9.3321
  1.890   9.4728
  1.888   9.5286
  1.886   9.6522
  1.884   9.7285
  1.882   9.8190
  1.880   9.9058
  1.878   9.9093
  1.876  10.0745
  1.874  10.2033
  1.872  10.2217
  1.870  10.3005
  1.868  10.3325
  1.866  10.5188
  1.864  10.5245
  1.862  10.4131
  1.860  10.5331
  1.858  10.5760
  1.856  10.4807
  1.854  10.6462
  1.852  10.6341
  1.850  10.5351
  1.848  10.7052
  1.846  10.6619
  1.844  10.6396
  1.842  10.5801
  1.840  10.5429
  1.838  10.5409
  1.836  10.4905
  1.834  10.5294
  1.832  10.5606
  1.830  10.4327
  1.828  10.3074
  1.826  10.3289
  1.824  10.2572
  1.822  10.2573
  1.820  10.2092
  1.818  10.0141
  1.816  10.2246
  1.814  10.0281
  1.812  10.0793
  1.810  10.0212
  1.808  10.1131
  1.806   9.9056
  1.804  10.0103
  1.802  10.0575
  1.800   9.9162
  1.798  10.0092
  1.796   9.8746
  1.794   9.8371
  1.792   9.9615
  1.790   9.9138
  1.788   9.8491
  1.786   9.9500
  1.784  10.0243
  1.782   9.9262
  1.780   9.9083
  1.778  10.0527
  1.776  10.0966
  1.774  10.0249
  1.772  10.1630
  1.770  10.1051
  1.768  10.2048
  1.766  10.3163
  1.764  10.3073
  1.762  10.4006
  1.760  10.4431
  1.758  10.4172
  1.756  10.5473
  1.754  10.5293
  1.752  10.6405
  1.750  10.5832
  1.748  10.6664
  1.746  10.5861
  1.744  10.8332
  1.742  10.8411
  1.740  10.9265
  1.738  10.9522
  1.736  11.1144
  1.734  11.0456
  1.732  11.1961
  1.730  11.3374
  1.728  11.3294
  1.726  11.3901
  1.724  11.4267
  1.722  11.4975
  1.720  11.6755
  1.718  11.7184
  1.716  11.7873
  1.714  11.7999
  1.712  11.9441
  1.710  11.9585
  1.708  12.0662
  1.706  12.1726
  1.704  12.1522
  1.702  12.1920
  1.700  12.3526
  1.698  12.4099
  1.696  12.5748
  1.694  12.6227
  1.692  12.6197
  1.690  12.7428
  1.688  12.8040
  1.686  12.8402
  1.684  12.9490
  1.682  13.0504
  1.680  13.0040
  1.678  13.2008
  1.676  13.3194
  1.674  13.3173
  1.672  13.3844
  1.670  13.5143
  1.668  13.5021
  1.666  13.5910
  1.664  13.6900
  1.662  13.7965
  1.660  13.8814
  1.658  13.9316
  1.656  14.0635
  1.654  14.0938
  1.652  14.1194
  1.650  14.1125
  1.648  14.1604
  1.646  14.2404
  1.644  14.3404
  1.642  14.3475
  1.640  14.3135
  1.638  14.3440
  1.636  14.4034
  1.634  14.4357
  1.632  14.3804
  1.630  14.3402
  1.628  14.3575
  1.626  14.3901
  1.624  14.4320
  1.622  14.3988
  1.620  14.3763
  1.618  14.3581
  1.616  14.3539
  1.614  14.3432
  1.612  14.3817
  1.610  14.3438
  1.608  14.2772
  1.606  14.2282
  1.604  14.1977
  1.602  14.1990
  1.600  14.1163
  1.598  14.0829
  1.596  14.0264
  1.594  13.9870
  1.592  13.9711
  1.590  13.9678
  1.588  13.8961
  1.586  13.8292
  1.584  13.7597
  1.582  13.7478
  1.580  13.7403
  1.578  13.7247
  1.576  13.7327
  1.574  13.6722
  1.572  13.6273
  1.570  13.6327
  1.568  13.6839
  1.566  13.7868
  1.564  13.8105
  1.562  13.7330
  1.560  13.7421
  1.558  13.9164
  1.556  13.9421
  1.554  13.9444
  1.552  14.0698
  1.550  14.0960
  1.548  14.1732
  1.546  14.2943
  1.544  14.3032
  1.542  14.3311
  1.540  14.4346
  1.538  14.5185
  1.536  14.5496
  1.534  14.7040
  1.532  14.7999
  1.530  14.8028
  1.528  14.8424
  1.526  14.8755
  1.524  14.9566
  1.522  15.0183
  1.520  15.0653
  1.518  15.0928
  1.516  15.2329
  1.514  15.2444
  1.512  15.2626
  1.510  15.3254
  1.508  15.4547
  1.506  15.5059
  1.504  15.4884
  1.502  15.5315
  1.500  15.6153
  1.498  15.6053
  1.496  15.6084
  1.494  15.6847
  1.492  15.8034
  1.490  15.8929
  1.488  16.1229
  1.486  16.4120
  1.484  16.6883
  1.482  16.8609
  1.480  17.0839
  1.478  17.3978
  1.476  17.5887
  1.474  17.9243
  1.472  18.3089
  1.470  18.5487
  1.468  18.8466
  1.466  19.1274
  1.464  19.4353
  1.462  19.7796
  1.460  20.0524
  1.458  20.3499
  1.456  20.6454
  1.454  21.0435
  1.452  21.3647
  1.450  21.6448
  1.448  21.9994
  1.446  22.4023
  1.444  22.8065
  1.442  22.9813
  1.440  23.4079
  1.438  23.7754
  1.436  24.0208
  1.434  24.3496
  1.432  24.6466
  1.430  25.0063
  1.428  25.2645
  1.426  25.6599
  1.424  25.8722
  1.422  26.1079
  1.420  26.4284
  1.418  26.7065
  1.416  26.9324
  1.414  27.2413
  1.412  27.4359
  1.410  27.5914
  1.408  27.7488
  1.406  28.0861
  1.404  28.2022
  1.402  28.3009
  1.400  28.4201
  1.398  28.5320
  1.396  28.6628
  1.394  28.7157
  1.392  28.8076
  1.390  28.8666
  1.388  29.0018
  1.386  29.0414
  1.384  29.1135
  1.382  29.1900
  1.380  29.2361
  1.378  29.4347
  1.376  29.3933
  1.374  29.4431
  1.372  29.4596
  1.370  29.6251
  1.368  29.7098
  1.366  29.9876
  1.364  30.0731
  1.362  30.1533
  1.360  30.2867
  1.358  30.4461
  1.356  30.5676
  1.354  30.7708
  1.352  30.8016
  1.350  30.9116
  1.348  31.1181
  1.346  31.2343
  1.344  31.3808
  1.342  31.5014
  1.340  31.5226
  1.338  31.7534
  1.336  31.9183
  1.334  31.9823
  1.332  31.9988
  1.330  32.0659
  1.328  32.1416
  1.326  32.2794
  1.324  32.3341
  1.322  32.4941
  1.320  32.4189
  1.318  32.5160
  1.316  32.6159
  1.314  32.6371
  1.312  32.5439
  1.310  32.6785
  1.308  32.6910
  1.306  32.7641
  1.304  32.7766
  1.302  32.6257
  1.300  32.7828
  1.298  32.7490
  1.296  32.8507
  1.294  32.7343
  1.292  32.7229
  1.290  32.8138
  1.288  32.7994
  1.286  32.8185
  1.284  32.7566
  1.282  32.7147
  1.280  32.7303
  1.278  32.7764
  1.276  32.8193
  1.274  32.8129
  1.272  32.7305
  1.270  32.7477
  1.268  32.9429
  1.266  32.7271
  1.264  32.7745
  1.262  32.8928
  1.260  32.8370
  1.258  32.8889
  1.256  32.6996
  1.254  32.8500
  1.252  32.8741
  1.250  32.9384
  1.248  32.9506
  1.246  32.9437
  1.244  32.8978
  1.242  32.9455
  1.240  33.0339
  1.238  33.0368
  1.236  33.0617
  1.234  33.1575
  1.232  33.0753
  1.230  33.1170
  1.228  33.1530
  1.226  33.2183
  1.224  33.3275
  1.222  33.3493
  1.220  33.3631
  1.218  33.3682
  1.216  33.3270
  1.214  33.4086
  1.212  33.5158
  1.210  33.5857
  1.208  33.5971
  1.206  33.7334
  1.204  33.6485
  1.202  33.9035
  1.200  33.8167
  1.198  33.9177
  1.196  33.9756
  1.194  34.0943
  1.192  34.1351
  1.190  34.2064
  1.188  34.3384
  1.186  34.4174
  1.184  34.6099
  1.182  34.6691
  1.180  34.8009
  1.178  34.8278
  1.176  34.9703
  1.174  35.0669
  1.172  35.0652
  1.170  35.3238
  1.168  35.4240
  1.166  35.5164
  1.164  35.5426
  1.162  35.6767
  1.160  35.6784
  1.158  35.7928
  1.156  35.7703
  1.154  35.9005
  1.152  35.9521
  1.150  36.0457
  1.148  36.0202
  1.146  36.1415
  1.144  36.1070
  1.142  36.2463
  1.140  36.1717
  1.138  36.2288
  1.136  36.2900
  1.134  36.4021
  1.132  36.2460
  1.130  36.2980
  1.128  36.3530
  1.126  36.5122
  1.124  36.3663
  1.122  36.4449
  1.120  36.4637
  1.118  36.4584
  1.116  36.5072
  1.114  36.5863
  1.112  36.5960
  1.110  36.6168
  1.108  36.5438
  1.106  36.6477
  1.104  36.7660
  1.102  36.7596
  1.100  36.7044
  1.098  36.7158
  1.096  36.8039
  1.094  36.7855
  1.092  36.7805
  1.090  36.8554
  1.088  36.8660
  1.086  36.8447
  1.084  36.8503
  1.082  36.8836
  1.080  36.8917
  1.078  36.8942
  1.076  36.8822
  1.074  36.9739
  1.072  36.9094
  1.070  36.8796
  1.068  36.8555
  1.066  37.0025
  1.064  36.9346
  1.062  36.9263
  1.060  36.9268
  1.058  36.9665
  1.056  36.9513
  1.054  36.9473
  1.052  36.8829
  1.050  36.9778
  1.048  36.8313
  1.046  36.8299
  1.044  36.9362
  1.042  36.9026
  1.040  36.9446
  1.038  36.9779
  1.036  36.8440
  1.034  36.8766
  1.032  36.8299
  1.030  36.8697
  1.028  36.7658
  1.026  36.7607
  1.024  36.8388
  1.022  36.7994
  1.020  36.7128
  1.018  36.7285
  1.016  36.7149
  1.014  36.8065
  1.012  36.7937
  1.010  36.7030
  1.008  36.8203
  1.006  36.9096
  1.004  36.9163
  1.002  36.8886
  1.000  36.8941
  0.998  36.9781
  0.996  37.0346
  0.994  37.0391
  0.992  37.0267
  0.990  37.0792
  0.988  37.1178
  0.986  37.1724
  0.984  37.1714
  0.982  37.2365
  0.980  37.3447
  0.978  37.3229
  0.976  37.3923
  0.974  37.4609
  0.972  37.4672
  0.970  37.4681
  0.968  37.5561
  0.966  37.6143
  0.964  37.6760
  0.962  37.6341
  0.960  37.6092
  0.958  37.6152
  0.956  37.6601
  0.954  37.7016
  0.952  37.7511
  0.950  37.6948
  0.948  37.6778
  0.946  37.7548
  0.944  37.8253
  0.942  37.8572
  0.940  37.7684
  0.938  37.7436
  0.936  37.7547
  0.934  37.8291
  0.932  37.8910
  0.930  37.8851
  0.928  37.8403
  0.926  37.8236
  0.924  37.8858
  0.922  37.8687
  0.920  37.8309
  0.918  37.8608
  0.916  37.8290
  0.914  37.8337
  0.912  37.8630
  0.910  37.8078
  0.908  37.7714
  0.906  37.7626
  0.904  37.7875
  0.902  37.7934
  0.900  37.8270
  0.898  37.9666
  0.896  37.9379
  0.894  37.9562
  0.892  37.9772
  0.890  37.8995
  0.888  37.8890
  0.886  37.8395
  0.884  37.9060
  0.882  37.9249
  0.880  38.0659
  0.878  38.0249
  0.876  37.8861
  0.874  38.0252
  0.872  38.0011
  0.870  37.9142
  0.868  37.7970
  0.866  37.7624
  0.864  37.6722
  0.862  37.8440
  0.860  37.7826
  0.858  37.7104
  0.856  37.6959
  0.854  37.7176
  0.852  37.7557
  0.850  37.7584
  0.848  37.7541
  0.846  37.7210
  0.844  37.7263
  0.842  37.7404
  0.840  37.7149
  0.838  37.7240
  0.836  37.7185
  0.834  37.6949
  0.832  37.6705
  0.830  37.6503
  0.828  37.6542
  0.826  37.6342
  0.824  37.6176
  0.822  37.5919
  0.820  37.5700
  0.818  37.5572
  0.816  37.5493
  0.814  37.5450
  0.812  37.5094
  0.810  37.4815
  0.808  37.4741
  0.806  37.4868
  0.804  37.4592
  0.802  37.4460
  0.800  37.4264
  0.798  37.3766
  0.796  37.3528
  0.794  37.3332
  0.792  37.2873
  0.790  37.2696
  0.788  37.2803
  0.786  37.2601
  0.784  37.2226
  0.782  37.1843
  0.780  37.1833
  0.778  37.1540
  0.776  37.1034
  0.774  37.0837
  0.772  37.0553
  0.770  37.0537
  0.768  37.0174
  0.766  36.9757
  0.764  36.9674
  0.762  36.9124
  0.760  36.9056
  0.758  36.8695
  0.756  36.8372
  0.754  36.8298
  0.752  36.8059
  0.750  36.7792
  0.748  36.7257
  0.746  36.7131
  0.744  36.6700
  0.742  36.6284
  0.740  36.6033
  0.738  36.5655
  0.736  36.5281
  0.734  36.4878
  0.732  36.4303
  0.730  36.3678
  0.728  36.3427
  0.726  36.3103
  0.724  36.2811
  0.722  36.2213
  0.720  36.1694
  0.718  36.1137
  0.716  36.0659
  0.714  36.0054
  0.712  35.9511
  0.710  35.8883
  0.708  35.8332
  0.706  35.7764
  0.704  35.6767
  0.702  35.6278
  0.700  35.5579
  0.698  35.4820
  0.696  35.4065
  0.694  35.3249
  0.692  35.2452
  0.690  35.1592
  0.688  35.0541
  0.686  34.9802
  0.684  34.8971
  0.682  34.7629
  0.680  34.6486
  0.678  34.5415
  0.676  34.4026
  0.674  34.3001
  0.672  34.1919
  0.670  34.0968
  0.668  34.0064
  0.666  33.9553
  0.664  33.8913
  0.662  33.8653
  0.660  33.8207
  0.658  33.8142
  0.656  33.8139
  0.654  33.8251
  0.652  33.8877
  0.650  33.9762
  0.648  34.0804
  0.646  34.1794
  0.644  34.2700
  0.642  34.3526
  0.640  34.4113
  0.638  34.4507
  0.636  34.4831
  0.634  34.4850
  0.632  34.5014
  0.630  34.4960
  0.628  34.4939
  0.626  34.4830
  0.624  34.4867
  0.622  34.4526
  0.620  34.4384
  0.618  34.4348
  0.616  34.4010
  0.614  34.4015
  0.612  34.3500
  0.610  34.3444
  0.608  34.3273
  0.606  34.3177
  0.604  34.3230
  0.602  34.3353
  0.600  34.3377
  0.598  34.3346
  0.596  34.3477
  0.594  34.3452
  0.592  34.3660
  0.590  34.3632
  0.588  34.3677
  0.586  34.3602
  0.584  34.3371
  0.582  34.3278
  0.580  34.3158
  0.578  34.2844
  0.576  34.2578
  0.574  34.2301
  0.572  34.1986
  0.570  34.1574
  0.568  34.1334
  0.566  34.1154
  0.564  34.0693
  0.562  34.0242
  0.560  33.9978
  0.558  33.9618
  0.556  33.9231
  0.554  33.8784
  0.552  33.8267
  0.550  33.7910
  0.548  33.7461
  0.546  33.6919
  0.544  33.6602
  0.542  33.6240
  0.540  33.5940
  0.538  33.5614
  0.536  33.5116
  0.534  33.4641
  0.532  33.4231
  0.530  33.3680
  0.528  33.3129
  0.526  33.2513
  0.524  33.1901
  0.522  33.1217
  0.520  33.0514
  0.518  32.9722
  0.516  32.8989
  0.514  32.8187
  0.512  32.7469
  0.510  32.6787
  0.508  32.6102
  0.506  32.5504
  0.504  32.4950
  0.502  32.4469
  0.500  32.4026
  0.498  32.3652
  0.496  32.3280
  0.494  32.2751
  0.492  32.2314
  0.490  32.1897
  0.488  32.1345
  0.486  32.0735
  0.484  32.0056
  0.482  31.9318
  0.480  31.8706
  0.478  31.7879
  0.476  31.7262
  0.474  31.6621
  0.472  31.5922
  0.470  31.5148
  0.468  31.4386
  0.466  31.3581
  0.464  31.2926
  0.462  31.2182
  0.460  31.1405
  0.458  31.0622
  0.456  30.9685
  0.454  30.8835
  0.452  30.7851
  0.450  30.6918
  0.448  30.5914
  0.446  30.4877
  0.444  30.3710
  0.442  30.2578
  0.440  30.1524
  0.438  30.0358
  0.436  29.9125
  0.434  29.7991
  0.432  29.6811
  0.430  29.5521
  0.428  29.4172
  0.426  29.2867
  0.424  29.1681
  0.422  29.0489
  0.420  28.9444
  0.418  28.8304
  0.416  28.7356
  0.414  28.6548
  0.412  28.5965
  0.410  28.5323
  0.408  28.4941
  0.406  28.4790
  0.404  28.4848
  0.402  28.5094
  0.400  28.5521
