Name: Inderite MgB3O3(OH)5 * 5H2O
Type: Mineral
Class: Borate
Subclass:
Particle Size: Unsieved coarse powder
Sample No.: NMNH 137833
Owner: Smithsonian Institute, National Museum of Nat. History
Wavelength range: 0.40 - 14.05 um
Origin: Kern County, CA

Description: Inderite from Kern County, CA





Measurement: Directional Hemispherical Reflectance
First Column: X
Second Column: Y
X Units: Wavelength (micrometers)
Y Units: Reflectance (percent)
First X Value: 14.05105
Last X Value: 0.40000
Number of X Values: 2756
Additional Information: None

 14.051   2.5235
 14.013   2.3999
 13.975   2.5750
 13.938   2.5853
 13.900   2.7295
 13.863   2.6471
 13.826   2.6986
 13.790   2.6883
 13.753   2.7295
 13.717   2.6986
 13.680   2.7707
 13.644   2.7295
 13.609   2.8222
 13.573   2.8428
 13.538   2.8943
 13.502   2.8531
 13.467   2.9973
 13.432   3.1106
 13.398   3.1621
 13.363   3.0797
 13.329   3.0488
 13.295   2.8428
 13.261   2.5956
 13.227   2.3793
 13.193   2.2866
 13.160   2.1733
 13.126   2.2042
 13.093   2.2351
 13.060   2.3793
 13.027   2.4514
 12.995   2.5750
 12.962   2.6059
 12.930   2.7192
 12.898   2.7604
 12.866   2.8325
 12.834   2.8531
 12.802   2.9355
 12.771   2.9355
 12.739   3.0076
 12.708   3.0797
 12.677   3.1621
 12.646   3.1621
 12.616   3.3166
 12.585   3.4196
 12.554   3.5226
 12.524   3.5226
 12.494   3.5947
 12.464   3.6359
 12.434   3.6874
 12.404   3.5123
 12.375   3.3269
 12.345   3.0282
 12.316   2.7192
 12.287   2.4411
 12.258   2.4411
 12.229   2.3896
 12.200   2.4102
 12.171   2.3999
 12.143   2.4617
 12.115   2.5853
 12.086   2.7810
 12.058   2.7810
 12.030   2.8222
 12.002   2.8428
 11.975   2.9046
 11.947   2.9149
 11.920   3.0385
 11.892   3.0694
 11.865   3.2136
 11.838   3.2754
 11.811   3.3578
 11.784   3.4402
 11.757   3.5638
 11.731   3.5844
 11.704   3.6771
 11.678   3.6771
 11.652   3.7904
 11.626   3.9037
 11.600   4.0170
 11.574   4.0273
 11.548   4.0582
 11.522   4.0067
 11.497   4.0376
 11.471   4.0273
 11.446   4.0994
 11.421   4.0479
 11.396   4.0479
 11.371   4.0788
 11.346   4.1612
 11.321   4.1509
 11.297   4.1509
 11.272   4.1406
 11.248   4.1921
 11.223   4.1715
 11.199   4.2436
 11.175   4.2230
 11.151   4.2436
 11.127   4.2436
 11.103   4.2230
 11.079   4.1612
 11.056   4.1612
 11.032   4.0685
 11.009   4.0582
 10.985   3.9655
 10.962   3.8419
 10.939   3.6977
 10.916   3.6050
 10.893   3.4505
 10.870   3.3681
 10.848   3.2857
 10.825   3.3063
 10.802   3.1930
 10.780   3.1312
 10.758   3.0488
 10.735   3.0282
 10.713   2.9561
 10.691   2.9973
 10.669   3.0179
 10.647   3.0179
 10.625   3.0076
 10.604   3.0385
 10.582   3.0385
 10.560   3.1312
 10.539   3.1621
 10.518   3.2445
 10.496   3.2754
 10.475   3.3372
 10.454   3.3269
 10.433   3.3578
 10.412   3.3578
 10.391   3.4402
 10.370   3.4505
 10.350   3.5020
 10.329   3.5226
 10.309   3.5638
 10.288   3.6050
 10.268   3.7492
 10.247   3.8316
 10.227   3.9243
 10.207   3.9655
 10.187   4.0376
 10.167   4.0685
 10.147   4.1818
 10.127   4.2642
 10.108   4.2642
 10.088   4.2436
 10.068   4.2745
 10.049   4.2333
 10.029   4.2539
 10.010   4.2230
  9.991   4.1818
  9.972   4.1303
  9.952   4.1921
  9.933   4.1921
  9.914   4.2333
  9.895   4.2230
  9.877   4.1818
  9.858   4.0891
  9.839   4.0376
  9.821   3.9449
  9.802   3.8110
  9.783   3.7080
  9.765   3.7080
  9.747   3.5844
  9.728   3.5329
  9.710   3.4711
  9.692   3.5123
  9.674   3.5638
  9.656   3.7183
  9.638   3.8316
  9.620   3.9758
  9.602   4.0994
  9.585   4.3157
  9.567   4.4702
  9.549   4.6041
  9.532   4.6556
  9.514   4.7380
  9.497   4.7380
  9.479   4.7586
  9.462   4.6968
  9.445   4.6453
  9.428   4.5217
  9.411   4.3775
  9.394   4.1406
  9.377   3.9552
  9.360   3.6874
  9.343   3.4299
  9.326   3.1621
  9.309   2.9870
  9.293   2.7604
  9.276   2.5750
  9.259   2.3690
  9.243   2.2145
  9.226   2.0600
  9.210   1.9776
  9.194   1.8952
  9.178   1.8643
  9.161   1.7510
  9.145   1.7098
  9.129   1.5965
  9.113   1.5553
  9.097   1.5038
  9.081   1.4523
  9.065   1.3905
  9.049   1.4008
  9.034   1.3184
  9.018   1.3596
  9.002   1.3699
  8.987   1.3802
  8.971   1.4214
  8.956   1.4935
  8.940   1.4935
  8.925   1.5656
  8.909   1.5553
  8.894   1.6480
  8.879   1.7407
  8.864   1.8849
  8.849   1.9982
  8.834   2.0806
  8.819   2.1115
  8.804   2.1836
  8.789   2.1939
  8.774   2.2454
  8.759   2.2557
  8.744   2.2763
  8.730   2.2145
  8.715   2.2248
  8.700   2.2042
  8.686   2.1630
  8.671   2.0703
  8.657   1.9982
  8.642   1.8849
  8.628   1.8334
  8.614   1.7407
  8.599   1.6789
  8.585   1.6171
  8.571   1.5759
  8.557   1.5347
  8.543   1.5553
  8.529   1.5450
  8.515   1.5656
  8.501   1.5553
  8.487   1.5656
  8.473   1.5759
  8.459   1.6274
  8.445   1.6171
  8.431   1.6171
  8.418   1.5553
  8.404   1.5347
  8.391   1.4626
  8.377   1.4832
  8.363   1.4008
  8.350   1.3596
  8.337   1.3081
  8.323   1.2669
  8.310   1.2051
  8.297   1.1536
  8.283   1.1124
  8.270   1.1227
  8.257   1.1227
  8.244   1.1330
  8.231   1.1433
  8.218   1.1948
  8.205   1.1536
  8.192   1.1845
  8.179   1.2154
  8.166   1.2257
  8.153   1.2360
  8.140   1.3287
  8.128   1.2978
  8.115   1.2669
  8.102   1.2875
  8.090   1.4008
  8.077   1.3905
  8.064   1.3699
  8.052   1.3905
  8.039   1.4317
  8.027   1.4008
  8.015   1.4111
  8.002   1.4317
  7.990   1.5038
  7.978   1.5038
  7.965   1.5038
  7.953   1.4832
  7.941   1.5553
  7.929   1.5450
  7.917   1.5450
  7.905   1.5862
  7.893   1.6377
  7.881   1.6377
  7.869   1.6892
  7.857   1.6995
  7.845   1.6892
  7.833   1.6583
  7.821   1.6892
  7.809   1.6789
  7.798   1.6480
  7.786   1.6171
  7.774   1.5965
  7.763   1.4935
  7.751   1.4317
  7.739   1.4008
  7.728   1.3905
  7.716   1.3596
  7.705   1.3802
  7.694   1.3802
  7.682   1.4111
  7.671   1.4214
  7.659   1.4317
  7.648   1.4420
  7.637   1.4935
  7.626   1.5347
  7.614   1.6171
  7.603   1.6377
  7.592   1.6892
  7.581   1.7304
  7.570   1.7819
  7.559   1.8128
  7.548   1.8849
  7.537   1.9364
  7.526   1.9879
  7.515   2.0188
  7.504   2.0806
  7.493   2.1527
  7.483   2.2660
  7.472   2.3072
  7.461   2.3381
  7.450   2.3999
  7.440   2.4720
  7.429   2.4926
  7.418   2.5029
  7.408   2.4823
  7.397   2.5544
  7.387   2.6471
  7.376   2.6883
  7.366   2.6986
  7.355   2.6780
  7.345   2.6162
  7.334   2.5441
  7.324   2.4308
  7.314   2.2866
  7.303   2.1218
  7.293   1.9879
  7.283   1.8952
  7.273   1.8746
  7.263   1.8128
  7.252   1.8128
  7.242   1.8334
  7.232   1.8643
  7.222   1.8849
  7.212   1.9364
  7.202   1.9879
  7.192   2.0703
  7.182   2.1527
  7.172   2.2660
  7.162   2.3484
  7.152   2.4411
  7.143   2.4514
  7.133   2.4926
  7.123   2.5235
  7.113   2.5132
  7.103   2.4411
  7.094   2.3072
  7.084   2.1218
  7.074   2.0085
  7.065   1.8746
  7.055   1.8128
  7.046   1.6789
  7.036   1.5347
  7.026   1.4317
  7.017   1.3596
  7.007   1.2154
  6.998   1.0918
  6.989   1.0094
  6.979   0.9991
  6.970   0.9682
  6.960   0.9991
  6.951   0.9888
  6.942   0.9888
  6.932   1.0506
  6.923   1.1124
  6.914   1.1124
  6.905   1.1433
  6.896   1.1227
  6.886   1.1021
  6.877   1.0712
  6.868   1.0403
  6.859   0.9682
  6.850   0.9064
  6.841   0.8652
  6.832   0.8343
  6.823   0.7931
  6.814   0.8240
  6.805   0.8446
  6.796   0.8343
  6.787   0.8343
  6.778   0.8755
  6.770   0.8961
  6.761   0.9476
  6.752   0.9270
  6.743   0.9373
  6.734   0.9785
  6.726   1.0300
  6.717   1.0815
  6.708   1.1227
  6.700   1.1227
  6.691   1.1639
  6.682   1.1845
  6.674   1.2360
  6.665   1.2875
  6.657   1.3184
  6.648   1.3493
  6.640   1.4420
  6.631   1.4729
  6.623   1.4935
  6.614   1.4935
  6.606   1.5038
  6.597   1.5038
  6.589   1.5347
  6.581   1.5038
  6.572   1.5244
  6.564   1.5759
  6.556   1.6377
  6.547   1.6377
  6.539   1.6583
  6.531   1.6377
  6.523   1.6480
  6.514   1.6892
  6.506   1.7098
  6.498   1.6995
  6.490   1.6789
  6.482   1.6789
  6.474   1.6686
  6.466   1.6377
  6.458   1.6686
  6.450   1.6892
  6.442   1.7098
  6.434   1.7201
  6.426   1.7304
  6.418   1.7304
  6.410   1.7510
  6.402   1.7819
  6.394   1.7407
  6.386   1.7304
  6.378   1.7716
  6.370   1.7613
  6.363   1.7716
  6.355   1.7922
  6.347   1.8128
  6.339   1.8128
  6.332   1.8334
  6.324   1.8437
  6.316   1.8952
  6.308   1.8952
  6.301   1.9158
  6.293   1.9261
  6.286   1.9570
  6.278   1.9673
  6.270   1.9879
  6.263   1.9879
  6.255   1.9982
  6.248   2.0188
  6.240   2.0703
  6.233   2.0497
  6.225   2.0188
  6.218   2.0394
  6.210   2.0703
  6.203   2.0394
  6.195   2.0600
  6.188   2.0600
  6.181   2.0394
  6.173   1.9673
  6.166   1.9673
  6.159   1.9673
  6.151   1.9467
  6.144   1.9055
  6.137   1.9055
  6.130   1.8849
  6.122   1.8334
  6.115   1.7922
  6.108   1.7716
  6.101   1.6995
  6.094   1.6789
  6.086   1.6583
  6.079   1.6377
  6.072   1.6068
  6.065   1.5553
  6.058   1.4729
  6.051   1.4523
  6.044   1.4626
  6.037   1.4832
  6.030   1.4317
  6.023   1.4008
  6.016   1.3905
  6.009   1.3905
  6.002   1.3802
  5.995   1.3802
  5.988   1.4008
  5.981   1.3905
  5.974   1.3596
  5.967   1.4214
  5.960   1.4214
  5.954   1.4008
  5.947   1.4008
  5.940   1.4008
  5.933   1.4111
  5.926   1.4111
  5.920   1.3699
  5.913   1.3390
  5.906   1.2978
  5.899   1.2978
  5.893   1.2772
  5.886   1.2463
  5.879   1.2154
  5.873   1.2360
  5.866   1.2257
  5.859   1.1948
  5.853   1.1433
  5.846   1.1227
  5.840   1.1330
  5.833   1.1330
  5.827   1.1021
  5.820   1.1124
  5.813   1.1124
  5.807   1.1227
  5.800   1.1124
  5.794   1.1227
  5.788   1.1536
  5.781   1.1742
  5.775   1.1742
  5.768   1.1948
  5.762   1.1948
  5.755   1.2360
  5.749   1.2875
  5.743   1.3184
  5.736   1.3493
  5.730   1.4523
  5.724   1.5553
  5.717   1.6274
  5.711   1.6686
  5.705   1.7304
  5.698   1.7922
  5.692   1.9158
  5.686   2.0085
  5.680   2.0497
  5.674   2.0909
  5.667   2.1424
  5.661   2.1733
  5.655   2.1939
  5.649   2.2557
  5.643   2.3587
  5.637   2.4102
  5.630   2.4823
  5.624   2.5235
  5.618   2.5647
  5.612   2.6059
  5.606   2.6265
  5.600   2.6471
  5.594   2.6986
  5.588   2.7501
  5.582   2.8222
  5.576   2.8428
  5.570   2.8531
  5.564   2.8737
  5.558   2.9046
  5.552   2.9355
  5.546   2.9767
  5.540   3.0282
  5.534   3.0797
  5.528   3.1106
  5.523   3.1209
  5.517   3.1312
  5.511   3.1724
  5.505   3.1930
  5.499   3.2136
  5.493   3.2342
  5.487   3.2857
  5.482   3.3166
  5.476   3.3269
  5.470   3.3372
  5.464   3.3887
  5.459   3.4196
  5.453   3.4402
  5.447   3.4711
  5.441   3.4814
  5.436   3.4917
  5.430   3.5123
  5.424   3.5741
  5.419   3.6462
  5.413   3.6565
  5.407   3.6565
  5.402   3.6874
  5.396   3.7595
  5.390   3.7698
  5.385   3.7595
  5.379   3.7698
  5.374   3.8316
  5.368   3.8728
  5.363   3.8934
  5.357   3.9346
  5.352   4.0067
  5.346   3.9861
  5.341   3.9758
  5.335   3.9964
  5.330   4.0273
  5.324   4.0273
  5.319   4.0376
  5.313   4.0685
  5.308   4.0891
  5.302   4.1303
  5.297   4.1715
  5.291   4.1406
  5.286   4.1406
  5.281   4.1715
  5.275   4.1818
  5.270   4.2127
  5.265   4.2127
  5.259   4.2127
  5.254   4.2745
  5.249   4.3054
  5.243   4.3466
  5.238   4.3569
  5.233   4.3569
  5.227   4.3569
  5.222   4.3569
  5.217   4.3775
  5.212   4.4084
  5.206   4.4084
  5.201   4.4290
  5.196   4.4496
  5.191   4.4702
  5.186   4.4805
  5.180   4.4908
  5.175   4.4599
  5.170   4.4599
  5.165   4.4908
  5.160   4.5217
  5.155   4.5320
  5.150   4.5423
  5.145   4.5732
  5.139   4.5629
  5.134   4.5423
  5.129   4.5423
  5.124   4.5423
  5.119   4.5526
  5.114   4.5732
  5.109   4.5732
  5.104   4.5526
  5.099   4.5629
  5.094   4.5732
  5.089   4.5629
  5.084   4.5732
  5.079   4.5938
  5.074   4.5732
  5.069   4.5629
  5.064   4.5732
  5.059   4.6041
  5.054   4.5835
  5.049   4.5835
  5.044   4.6041
  5.040   4.5938
  5.035   4.5629
  5.030   4.5629
  5.025   4.5732
  5.020   4.5835
  5.015   4.5835
  5.010   4.5629
  5.005   4.5629
  5.001   4.5629
  4.996   4.5526
  4.991   4.5526
  4.986   4.5938
  4.981   4.5938
  4.977   4.5423
  4.972   4.5629
  4.967   4.5835
  4.962   4.5938
  4.958   4.5938
  4.953   4.5938
  4.948   4.5629
  4.943   4.5526
  4.939   4.5423
  4.934   4.5629
  4.929   4.6144
  4.925   4.6453
  4.920   4.6350
  4.915   4.6041
  4.911   4.5732
  4.906   4.5526
  4.901   4.5835
  4.897   4.6041
  4.892   4.5732
  4.888   4.5732
  4.883   4.5629
  4.878   4.5629
  4.874   4.5732
  4.869   4.5732
  4.865   4.5320
  4.860   4.5217
  4.856   4.5526
  4.851   4.5835
  4.846   4.5526
  4.842   4.5320
  4.837   4.5423
  4.833   4.5526
  4.828   4.5629
  4.824   4.5423
  4.819   4.5114
  4.815   4.5320
  4.810   4.5423
  4.806   4.5423
  4.802   4.5526
  4.797   4.5629
  4.793   4.5629
  4.788   4.5732
  4.784   4.5629
  4.779   4.5526
  4.775   4.5423
  4.771   4.5217
  4.766   4.5526
  4.762   4.5732
  4.758   4.5732
  4.753   4.5938
  4.749   4.6350
  4.744   4.6453
  4.740   4.6350
  4.736   4.6041
  4.731   4.6144
  4.727   4.6350
  4.723   4.5938
  4.719   4.5732
  4.714   4.5732
  4.710   4.5732
  4.706   4.5732
  4.701   4.5732
  4.697   4.5629
  4.693   4.5423
  4.689   4.5320
  4.684   4.5011
  4.680   4.4805
  4.676   4.4908
  4.672   4.4908
  4.668   4.4805
  4.663   4.4393
  4.659   4.4290
  4.655   4.4599
  4.651   4.4187
  4.647   4.4187
  4.643   4.4187
  4.638   4.4084
  4.634   4.4290
  4.630   4.4599
  4.626   4.4496
  4.622   4.4393
  4.618   4.4496
  4.614   4.4702
  4.610   4.4805
  4.605   4.4496
  4.601   4.4084
  4.597   4.4187
  4.593   4.4496
  4.589   4.4290
  4.585   4.4187
  4.581   4.4084
  4.577   4.3878
  4.573   4.3878
  4.569   4.3981
  4.565   4.3466
  4.561   4.3260
  4.557   4.3878
  4.553   4.3672
  4.549   4.3054
  4.545   4.3157
  4.541   4.3466
  4.537   4.3157
  4.533   4.2848
  4.529   4.2642
  4.525   4.3054
  4.521   4.3363
  4.517   4.3157
  4.513   4.2951
  4.509   4.2745
  4.505   4.2951
  4.502   4.3157
  4.498   4.2848
  4.494   4.2436
  4.490   4.2127
  4.486   4.2024
  4.482   4.1818
  4.478   4.2024
  4.474   4.2333
  4.470   4.2333
  4.467   4.2230
  4.463   4.2127
  4.459   4.1612
  4.455   4.1612
  4.451   4.1509
  4.447   4.1612
  4.444   4.1509
  4.440   4.1406
  4.436   4.0994
  4.432   4.0788
  4.428   4.1097
  4.425   4.1097
  4.421   4.0685
  4.417   4.0891
  4.413   4.1303
  4.410   4.1406
  4.406   4.0994
  4.402   4.0582
  4.398   4.0685
  4.395   4.0582
  4.391   4.0479
  4.387   4.0479
  4.384   4.0582
  4.380   4.0376
  4.376   4.0170
  4.372   3.9861
  4.369   3.9758
  4.365   3.9964
  4.361   3.9964
  4.358   3.9655
  4.354   3.9449
  4.350   3.9552
  4.347   3.9449
  4.343   3.9243
  4.340   3.8831
  4.336   3.8831
  4.332   3.9037
  4.329   3.9243
  4.325   3.9140
  4.321   3.9346
  4.318   3.9346
  4.314   3.9243
  4.311   3.8934
  4.307   3.9037
  4.304   3.9140
  4.300   3.9140
  4.296   3.8625
  4.293   3.8625
  4.289   3.9140
  4.286   3.9552
  4.282   3.9037
  4.279   3.8522
  4.275   3.8831
  4.272   3.9243
  4.268   3.9346
  4.265   3.9140
  4.261   3.8419
  4.258   3.8110
  4.254   3.8110
  4.251   3.8625
  4.247   3.9140
  4.244   3.9552
  4.240   4.0170
  4.237   4.0376
  4.233   4.0170
  4.230   4.0067
  4.226   4.0170
  4.223   4.0170
  4.219   3.9758
  4.216   3.9758
  4.213   3.9346
  4.209   3.8625
  4.206   3.8522
  4.202   3.9140
  4.199   3.8934
  4.196   3.8007
  4.192   3.8007
  4.189   3.8522
  4.185   3.8831
  4.182   3.9140
  4.179   3.9758
  4.175   3.9758
  4.172   3.9552
  4.169   3.9449
  4.165   3.9449
  4.162   3.9758
  4.159   3.9861
  4.155   4.0170
  4.152   4.0479
  4.149   4.0479
  4.145   4.0582
  4.142   4.0994
  4.139   4.0994
  4.135   4.0685
  4.132   4.0788
  4.129   4.1303
  4.126   4.1200
  4.122   4.1406
  4.119   4.1715
  4.116   4.2024
  4.112   4.2230
  4.109   4.2539
  4.106   4.2333
  4.103   4.2024
  4.099   4.2024
  4.096   4.2333
  4.093   4.2230
  4.090   4.2539
  4.086   4.2848
  4.083   4.3054
  4.080   4.3363
  4.077   4.3569
  4.074   4.3569
  4.070   4.3569
  4.067   4.3569
  4.064   4.3569
  4.061   4.3466
  4.058   4.3569
  4.055   4.3569
  4.051   4.3260
  4.048   4.2951
  4.045   4.3466
  4.042   4.3878
  4.039   4.3878
  4.036   4.3363
  4.032   4.3569
  4.029   4.3775
  4.026   4.3672
  4.023   4.3569
  4.020   4.3466
  4.017   4.3466
  4.014   4.3775
  4.011   4.3363
  4.008   4.2951
  4.004   4.2745
  4.001   4.2436
  3.998   4.2436
  3.995   4.2333
  3.992   4.2333
  3.989   4.2642
  3.986   4.2642
  3.983   4.2642
  3.980   4.2745
  3.977   4.2230
  3.974   4.1921
  3.971   4.2539
  3.968   4.2642
  3.965   4.2642
  3.962   4.2848
  3.959   4.2642
  3.956   4.2745
  3.953   4.3054
  3.950   4.2951
  3.947   4.3260
  3.944   4.3157
  3.941   4.2951
  3.938   4.3672
  3.935   4.4290
  3.932   4.3672
  3.929   4.3363
  3.926   4.3569
  3.923   4.3569
  3.920   4.3466
  3.917   4.3981
  3.914   4.4084
  3.911   4.4702
  3.908   4.4805
  3.905   4.4805
  3.902   4.4805
  3.899   4.4599
  3.896   4.4702
  3.893   4.5526
  3.890   4.5732
  3.887   4.5629
  3.884   4.5938
  3.882   4.6247
  3.879   4.6144
  3.876   4.6247
  3.873   4.5938
  3.870   4.6247
  3.867   4.6350
  3.864   4.6453
  3.861   4.6350
  3.858   4.6453
  3.856   4.6762
  3.853   4.7380
  3.850   4.7380
  3.847   4.6968
  3.844   4.6762
  3.841   4.7174
  3.838   4.7071
  3.836   4.7586
  3.833   4.7689
  3.830   4.7277
  3.827   4.7071
  3.824   4.7277
  3.822   4.7277
  3.819   4.7174
  3.816   4.6968
  3.813   4.7071
  3.810   4.6968
  3.807   4.6968
  3.805   4.7071
  3.802   4.7483
  3.799   4.7071
  3.796   4.6865
  3.794   4.7071
  3.791   4.7071
  3.788   4.6865
  3.785   4.7174
  3.782   4.7174
  3.780   4.6556
  3.777   4.5938
  3.774   4.6247
  3.771   4.6247
  3.769   4.6350
  3.766   4.5835
  3.763   4.5320
  3.761   4.5526
  3.758   4.5629
  3.755   4.5526
  3.752   4.5320
  3.750   4.5217
  3.747   4.5011
  3.744   4.4908
  3.742   4.5320
  3.739   4.5217
  3.736   4.4702
  3.733   4.4496
  3.731   4.4599
  3.728   4.3981
  3.725   4.3569
  3.723   4.3775
  3.720   4.4084
  3.717   4.3775
  3.715   4.3569
  3.712   4.2951
  3.709   4.2745
  3.707   4.2539
  3.704   4.2436
  3.702   4.2436
  3.699   4.2127
  3.696   4.1921
  3.694   4.2127
  3.691   4.2024
  3.688   4.1612
  3.686   4.1509
  3.683   4.1715
  3.680   4.1200
  3.678   4.0891
  3.675   3.9964
  3.673   4.0170
  3.670   4.0891
  3.667   4.0479
  3.665   3.9758
  3.662   3.9655
  3.660   3.9552
  3.657   3.9346
  3.655   3.9037
  3.652   3.9346
  3.649   3.8728
  3.647   3.8316
  3.644   3.8625
  3.642   3.8625
  3.639   3.8522
  3.637   3.8522
  3.634   3.8110
  3.632   3.8316
  3.629   3.8625
  3.626   3.8728
  3.624   3.8007
  3.621   3.7801
  3.619   3.7698
  3.616   3.7080
  3.614   3.6153
  3.611   3.6462
  3.609   3.6668
  3.606   3.6771
  3.604   3.7080
  3.601   3.7183
  3.599   3.7080
  3.596   3.7080
  3.594   3.6668
  3.591   3.6462
  3.589   3.6256
  3.586   3.6668
  3.584   3.6462
  3.581   3.5947
  3.579   3.5535
  3.576   3.5329
  3.574   3.5020
  3.571   3.4608
  3.569   3.4711
  3.567   3.5226
  3.564   3.5432
  3.562   3.5329
  3.559   3.5329
  3.557   3.5535
  3.554   3.5123
  3.552   3.4711
  3.549   3.4402
  3.547   3.4196
  3.545   3.3166
  3.542   3.2651
  3.540   3.2857
  3.537   3.3372
  3.535   3.2960
  3.533   3.2754
  3.530   3.2960
  3.528   3.2960
  3.525   3.1827
  3.523   3.1106
  3.521   3.0282
  3.518   2.9664
  3.516   2.9664
  3.513   2.9355
  3.511   2.8428
  3.509   2.8325
  3.506   2.8222
  3.504   2.8222
  3.502   2.7707
  3.499   2.8222
  3.497   2.8016
  3.494   2.8016
  3.492   2.7913
  3.490   2.7501
  3.487   2.6986
  3.485   2.7192
  3.483   2.6780
  3.480   2.6471
  3.478   2.6265
  3.476   2.6368
  3.473   2.5956
  3.471   2.5956
  3.469   2.6162
  3.466   2.6162
  3.464   2.6059
  3.462   2.6059
  3.460   2.5441
  3.457   2.5338
  3.455   2.5132
  3.453   2.5338
  3.450   2.4823
  3.448   2.4514
  3.446   2.4411
  3.443   2.4102
  3.441   2.3793
  3.439   2.3690
  3.437   2.3484
  3.434   2.3999
  3.432   2.3999
  3.430   2.3381
  3.428   2.2454
  3.425   2.2145
  3.423   2.2660
  3.421   2.3381
  3.418   2.3072
  3.416   2.2969
  3.414   2.2969
  3.412   2.2969
  3.409   2.2454
  3.407   2.2454
  3.405   2.2454
  3.403   2.2969
  3.401   2.2042
  3.398   2.1939
  3.396   2.2145
  3.394   2.2145
  3.392   2.1733
  3.389   2.1424
  3.387   2.1733
  3.385   2.2248
  3.383   2.1733
  3.381   2.1321
  3.378   2.1424
  3.376   2.1218
  3.374   2.1012
  3.372   2.0909
  3.370   2.0806
  3.367   2.1527
  3.365   2.1733
  3.363   2.1630
  3.361   2.1733
  3.359   2.2248
  3.357   2.1836
  3.354   2.1527
  3.352   2.1939
  3.350   2.2557
  3.348   2.2763
  3.346   2.3278
  3.344   2.2042
  3.341   2.1630
  3.339   2.1733
  3.337   2.2042
  3.335   2.2145
  3.333   2.1939
  3.331   2.1939
  3.329   2.2660
  3.326   2.2454
  3.324   2.2454
  3.322   2.2969
  3.320   2.3072
  3.318   2.2042
  3.316   2.1836
  3.314   2.2042
  3.312   2.2351
  3.309   2.2660
  3.307   2.3072
  3.305   2.3278
  3.303   2.3175
  3.301   2.2969
  3.299   2.2969
  3.297   2.2866
  3.295   2.2866
  3.293   2.2557
  3.291   2.2660
  3.288   2.2763
  3.286   2.2763
  3.284   2.2763
  3.282   2.2248
  3.280   2.2351
  3.278   2.2763
  3.276   2.2660
  3.274   2.2557
  3.272   2.2557
  3.270   2.2866
  3.268   2.2866
  3.266   2.2866
  3.264   2.2557
  3.262   2.2454
  3.259   2.2145
  3.257   2.2351
  3.255   2.2351
  3.253   2.2660
  3.251   2.2454
  3.249   2.2351
  3.247   2.2042
  3.245   2.3072
  3.243   2.3278
  3.241   2.3072
  3.239   2.2454
  3.237   2.2145
  3.235   2.2248
  3.233   2.1836
  3.231   2.1733
  3.229   2.2248
  3.227   2.1939
  3.225   2.2145
  3.223   2.2351
  3.221   2.2557
  3.219   2.2660
  3.217   2.2248
  3.215   2.1939
  3.213   2.2557
  3.211   2.2454
  3.209   2.2454
  3.207   2.2042
  3.205   2.2351
  3.203   2.2969
  3.201   2.2866
  3.199   2.2145
  3.197   2.2248
  3.195   2.2145
  3.193   2.2248
  3.191   2.2042
  3.189   2.2248
  3.187   2.1939
  3.185   2.2660
  3.183   2.2660
  3.182   2.2248
  3.180   2.2145
  3.178   2.2660
  3.176   2.2248
  3.174   2.2145
  3.172   2.2042
  3.170   2.2660
  3.168   2.2763
  3.166   2.2660
  3.164   2.2145
  3.162   2.1733
  3.160   2.1939
  3.158   2.2351
  3.156   2.2042
  3.154   2.2248
  3.152   2.1836
  3.151   2.1630
  3.149   2.1630
  3.147   2.1939
  3.145   2.1939
  3.143   2.2248
  3.141   2.2248
  3.139   2.1836
  3.137   2.1630
  3.135   2.1012
  3.133   2.0806
  3.132   2.1321
  3.130   2.0806
  3.128   2.0909
  3.126   2.0703
  3.124   2.0909
  3.122   2.0909
  3.120   2.0497
  3.118   2.0291
  3.117   2.1115
  3.115   2.1424
  3.113   2.0806
  3.111   2.0085
  3.109   2.0600
  3.107   2.0291
  3.105   1.9570
  3.103   1.9467
  3.102   2.0703
  3.100   2.0703
  3.098   1.9982
  3.096   2.0188
  3.094   2.0703
  3.092   2.0291
  3.091   1.9879
  3.089   1.9261
  3.087   1.9467
  3.085   1.9467
  3.083   1.9467
  3.081   1.9570
  3.079   1.9673
  3.078   1.9261
  3.076   1.9467
  3.074   2.0085
  3.072   2.0188
  3.070   1.9467
  3.069   1.9055
  3.067   1.8746
  3.065   1.9158
  3.063   1.9467
  3.061   1.9570
  3.060   1.9467
  3.058   1.9364
  3.056   1.9158
  3.054   1.8643
  3.052   1.7819
  3.051   1.7922
  3.049   1.8334
  3.047   1.8540
  3.045   1.7716
  3.043   1.7716
  3.042   1.8437
  3.040   1.8334
  3.038   1.8025
  3.036   1.7922
  3.034   1.6789
  3.033   1.6583
  3.031   1.6892
  3.029   1.6789
  3.027   1.6171
  3.026   1.6995
  3.024   1.7613
  3.022   1.7304
  3.020   1.6068
  3.019   1.6377
  3.017   1.6480
  3.015   1.6789
  3.013   1.6995
  3.012   1.6583
  3.010   1.5553
  3.008   1.5965
  3.006   1.6068
  3.005   1.6068
  3.003   1.5862
  3.001   1.5862
  2.999   1.5450
  2.998   1.6068
  2.996   1.6377
  2.994   1.6274
  2.992   1.5965
  2.991   1.6068
  2.989   1.5553
  2.987   1.5656
  2.986   1.5244
  2.984   1.5244
  2.982   1.5450
  2.980   1.5759
  2.979   1.5759
  2.977   1.6068
  2.975   1.5141
  2.974   1.5553
  2.972   1.5862
  2.970   1.5553
  2.968   1.5038
  2.967   1.5965
  2.965   1.6789
  2.963   1.6480
  2.962   1.5141
  2.960   1.4420
  2.958   1.3699
  2.957   1.4111
  2.955   1.4317
  2.953   1.5038
  2.952   1.4317
  2.950   1.3493
  2.948   1.3905
  2.947   1.4523
  2.945   1.3287
  2.943   1.3905
  2.942   1.3699
  2.940   1.3802
  2.938   1.4111
  2.937   1.4008
  2.935   1.4111
  2.933   1.4317
  2.932   1.3802
  2.930   1.4935
  2.928   1.4317
  2.927   1.3390
  2.925   1.3802
  2.923   1.4935
  2.922   1.5141
  2.920   1.4523
  2.918   1.4008
  2.917   1.5553
  2.915   1.6171
  2.913   1.5450
  2.912   1.3802
  2.910   1.3493
  2.909   1.4626
  2.907   1.5656
  2.905   1.5141
  2.904   1.5141
  2.902   1.4832
  2.900   1.4626
  2.899   1.3596
  2.897   1.3184
  2.896   1.3081
  2.894   1.3081
  2.892   1.2875
  2.891   1.2978
  2.889   1.2669
  2.887   1.2669
  2.886   1.2669
  2.884   1.3390
  2.883   1.2051
  2.881   1.2257
  2.879   1.2669
  2.878   1.1742
  2.876   1.1124
  2.875   1.1639
  2.873   1.1227
  2.871   1.0815
  2.870   1.1639
  2.868   1.2154
  2.867   1.1330
  2.865   1.1021
  2.864   1.0094
  2.862   0.9373
  2.860   0.9270
  2.859   1.0197
  2.857   1.0506
  2.856   1.1227
  2.854   1.0815
  2.853   1.0506
  2.851   0.9270
  2.849   0.9270
  2.848   0.9785
  2.846   0.9682
  2.845   0.8961
  2.843   0.9579
  2.842   0.9991
  2.840   1.0506
  2.838   0.9991
  2.837   0.9888
  2.835   1.0300
  2.834   1.0918
  2.832   1.0506
  2.831   1.0609
  2.829   1.0712
  2.828   1.1536
  2.826   1.1536
  2.825   1.1433
  2.823   1.1742
  2.821   1.1639
  2.820   1.1433
  2.818   1.1330
  2.817   1.1124
  2.815   1.2772
  2.814   1.3802
  2.812   1.2978
  2.811   1.3287
  2.809   1.4214
  2.808   1.2978
  2.806   1.2875
  2.805   1.3493
  2.803   1.3802
  2.802   1.3390
  2.800   1.3081
  2.799   1.2566
  2.797   1.3390
  2.796   1.2463
  2.794   1.1948
  2.793   1.2669
  2.791   1.3081
  2.790   1.1845
  2.788   1.3081
  2.787   1.4729
  2.785   1.4935
  2.784   1.3390
  2.782   1.4214
  2.781   1.5553
  2.779   1.5862
  2.778   1.5347
  2.776   1.4935
  2.775   1.4626
  2.773   1.5862
  2.772   1.6171
  2.770   1.6274
  2.769   1.6480
  2.767   1.6686
  2.766   1.6480
  2.764   1.6892
  2.763   1.5862
  2.761   1.5038
  2.760   1.3493
  2.758   1.4008
  2.757   1.5347
  2.756   1.6274
  2.754   1.7922
  2.753   1.9364
  2.751   1.9673
  2.750   2.1218
  2.748   2.1939
  2.747   2.2042
  2.745   2.2969
  2.744   2.4823
  2.742   2.6059
  2.741   2.7501
  2.740   2.7913
  2.738   2.8737
  2.737   3.0488
  2.735   3.1724
  2.734   3.1003
  2.732   3.1415
  2.731   3.2342
  2.729   3.3166
  2.728   3.4093
  2.727   3.6771
  2.725   3.8110
  2.724   3.9655
  2.722   3.9964
  2.721   4.0479
  2.719   4.0170
  2.718   4.0170
  2.717   4.2024
  2.715   4.4187
  2.714   4.4496
  2.712   4.5629
  2.711   4.7174
  2.709   4.9131
  2.708   4.9131
  2.707   4.9646
  2.705   5.0779
  2.704   5.2530
  2.702   5.3869
  2.701   5.5620
  2.700   5.6135
  2.698   5.7886
  2.697   5.9637
  2.695   6.1182
  2.694   6.1594
  2.693   6.1491
  2.691   6.1903
  2.690   6.4375
  2.688   6.6332
  2.687   6.6847
  2.686   6.7259
  2.684   6.9113
  2.683   7.0555
  2.681   7.2821
  2.680   7.3748
  2.679   7.3954
  2.677   7.3851
  2.676   7.3954
  2.675   7.4057
  2.673   7.4469
  2.672   7.5499
  2.670   7.7559
  2.669   7.7559
  2.668   7.8383
  2.666   8.1061
  2.665   8.2091
  2.664   8.1473
  2.662   8.2915
  2.661   8.3018
  2.659   8.3224
  2.658   8.4048
  2.657   8.5799
  2.655   8.6005
  2.654   8.6417
  2.653   8.6623
  2.651   8.7550
  2.650   8.9404
  2.649   9.0331
  2.647   8.9198
  2.646   9.0331
  2.645   9.2597
  2.643   9.4245
  2.642   9.4039
  2.640   9.4245
  2.639   9.2906
  2.638   9.0743
  2.636   9.1670
  2.635   9.5172
  2.634   9.6614
  2.632   9.8262
  2.631   9.9395
  2.630   9.8571
  2.628   9.7541
  2.627   9.8365
  2.626   9.9292
  2.624   9.9601
  2.623   9.9807
  2.622   9.9189
  2.620   9.9189
  2.619  10.0425
  2.618  10.1352
  2.617  10.2588
  2.615  10.2588
  2.614  10.3206
  2.613  10.3927
  2.611  10.4751
  2.610  10.3618
  2.609  10.2691
  2.607  10.4133
  2.606  10.4133
  2.605  10.3721
  2.603  10.5472
  2.602  10.5781
  2.601  10.5266
  2.599  10.6193
  2.598  10.7326
  2.597  10.6708
  2.596  10.7223
  2.594  10.8665
  2.593  10.8459
  2.592  10.7841
  2.590  10.8665
  2.589  10.9695
  2.588  10.9798
  2.586  10.8871
  2.585  10.9180
  2.584  10.8871
  2.583  11.0107
  2.581  11.1137
  2.580  11.1034
  2.579  11.0107
  2.577  11.0725
  2.576  11.0519
  2.575  11.0828
  2.574  11.0313
  2.572  10.9695
  2.571  11.0622
  2.570  11.0107
  2.569  10.7841
  2.567  10.9489
  2.566  11.0313
  2.565  11.0416
  2.563  11.0519
  2.562  10.9386
  2.561  10.8768
  2.560  11.1343
  2.558  11.2270
  2.557  11.0107
  2.556  10.8974
  2.555  11.0210
  2.553  11.1240
  2.552  11.1137
  2.551  10.8974
  2.550  10.9283
  2.548  10.9180
  2.547  10.9695
  2.546  10.9798
  2.545  11.0313
  2.543  11.0004
  2.542  10.9077
  2.541  10.6502
  2.540  10.5163
  2.538  10.7017
  2.537  10.8562
  2.536  10.8150
  2.535  10.7429
  2.533  10.6605
  2.532  10.7841
  2.531  10.7223
  2.530  10.5884
  2.528  10.4030
  2.527  10.5266
  2.526  10.7326
  2.525  10.7738
  2.524  10.5472
  2.522  10.5781
  2.521  10.7635
  2.520  10.8562
  2.519  10.7944
  2.517  10.6708
  2.516  10.5472
  2.515  10.5369
  2.514  10.5575
  2.513  10.5678
  2.511  10.4751
  2.510  10.4236
  2.509  10.3824
  2.508  10.3721
  2.506  10.2279
  2.505  10.3412
  2.504  10.2279
  2.503  10.1867
  2.502  10.3206
  2.500  10.2897
  2.500  10.2897
  2.498  10.3424
  2.496  10.1941
  2.494  10.5707
  2.492  10.2177
  2.490  10.4836
  2.488  10.6073
  2.486  10.3997
  2.484  10.4015
  2.482  10.4105
  2.480  10.1058
  2.478  10.8124
  2.476  10.7565
  2.474  10.4501
  2.472  10.5720
  2.470  10.4015
  2.468  10.8655
  2.466  10.8090
  2.464  10.7878
  2.462  10.9406
  2.460  10.7571
  2.458  11.1646
  2.456  11.0581
  2.454  11.2607
  2.452  11.0881
  2.450  11.3310
  2.448  11.2281
  2.446  11.5437
  2.444  11.4301
  2.442  11.7441
  2.440  11.5965
  2.438  11.6514
  2.436  11.8662
  2.434  12.0002
  2.432  12.0223
  2.430  12.2202
  2.428  11.9666
  2.426  12.1568
  2.424  12.3017
  2.422  12.4398
  2.420  12.4036
  2.418  12.5247
  2.416  12.8231
  2.414  12.7112
  2.412  12.9855
  2.410  12.9601
  2.408  13.0668
  2.406  13.1449
  2.404  13.1170
  2.402  13.3840
  2.400  13.5572
  2.398  13.5969
  2.396  13.7338
  2.394  13.6817
  2.392  13.6447
  2.390  13.9183
  2.388  13.8684
  2.386  14.0212
  2.384  14.1477
  2.382  14.3381
  2.380  14.3678
  2.378  14.5135
  2.376  14.6572
  2.374  14.7027
  2.372  14.7402
  2.370  14.9598
  2.368  14.8234
  2.366  15.1256
  2.364  15.3245
  2.362  15.4501
  2.360  15.5675
  2.358  15.7596
  2.356  15.7205
  2.354  15.8863
  2.352  16.1128
  2.350  16.4817
  2.348  16.2882
  2.346  16.6573
  2.344  16.7511
  2.342  16.9145
  2.340  17.0224
  2.338  17.2914
  2.336  17.4234
  2.334  17.5977
  2.332  17.5550
  2.330  17.8506
  2.328  17.8416
  2.326  17.9265
  2.324  18.0719
  2.322  17.9120
  2.320  18.0897
  2.318  18.1376
  2.316  18.1956
  2.314  18.2132
  2.312  18.1910
  2.310  18.3427
  2.308  18.2959
  2.306  18.3385
  2.304  18.4712
  2.302  18.4784
  2.300  18.4338
  2.298  18.3606
  2.296  18.4285
  2.294  18.5442
  2.292  18.6867
  2.290  18.5644
  2.288  18.5493
  2.286  18.7346
  2.284  18.7582
  2.282  18.7708
  2.280  18.7580
  2.278  18.7397
  2.276  18.5727
  2.274  18.6099
  2.272  18.5817
  2.270  18.3910
  2.268  18.3163
  2.266  18.2580
  2.264  18.1547
  2.262  18.1658
  2.260  18.0173
  2.258  17.9659
  2.256  17.8696
  2.254  17.8882
  2.252  17.8051
  2.250  17.6303
  2.248  17.5660
  2.246  17.5878
  2.244  17.5778
  2.242  17.4301
  2.240  17.3774
  2.238  17.3591
  2.236  17.2506
  2.234  17.2181
  2.232  17.2082
  2.230  17.1057
  2.228  17.0699
  2.226  17.1425
  2.224  17.1456
  2.222  17.1754
  2.220  17.3075
  2.218  17.3093
  2.216  17.3476
  2.214  17.3636
  2.212  17.3707
  2.210  17.4551
  2.208  17.4260
  2.206  17.4878
  2.204  17.3654
  2.202  17.2661
  2.200  17.3095
  2.198  17.1814
  2.196  17.0709
  2.194  16.9922
  2.192  16.8912
  2.190  16.7819
  2.188  16.6532
  2.186  16.5323
  2.184  16.5316
  2.182  16.4938
  2.180  16.3439
  2.178  16.2095
  2.176  16.2270
  2.174  16.1817
  2.172  16.2332
  2.170  16.2784
  2.168  16.2156
  2.166  16.2815
  2.164  16.4368
  2.162  16.4555
  2.160  16.4900
  2.158  16.5424
  2.156  16.4786
  2.154  16.4746
  2.152  16.5094
  2.150  16.4953
  2.148  16.4708
  2.146  16.5186
  2.144  16.4206
  2.142  16.5397
  2.140  16.6195
  2.138  16.6002
  2.136  16.6718
  2.134  16.7722
  2.132  16.9724
  2.130  17.0710
  2.128  17.2370
  2.126  17.2916
  2.124  17.3500
  2.122  17.3455
  2.120  17.3012
  2.118  17.2867
  2.116  16.9910
  2.114  16.9133
  2.112  16.9571
  2.110  16.8221
  2.108  16.7714
  2.106  16.7971
  2.104  16.8897
  2.102  16.9947
  2.100  17.1221
  2.098  17.2524
  2.096  17.4085
  2.094  17.4717
  2.092  17.5117
  2.090  17.5300
  2.088  17.6756
  2.086  17.6704
  2.084  17.6331
  2.082  17.6557
  2.080  17.6796
  2.078  17.6520
  2.076  17.5874
  2.074  17.6041
  2.072  17.4593
  2.070  17.4403
  2.068  17.3694
  2.066  17.4111
  2.064  17.4482
  2.062  17.2462
  2.060  17.1533
  2.058  17.1803
  2.056  17.1477
  2.054  17.0331
  2.052  17.0337
  2.050  16.7712
  2.048  16.9003
  2.046  16.7996
  2.044  16.6752
  2.042  16.5673
  2.040  16.6224
  2.038  16.5810
  2.036  16.4855
  2.034  16.4702
  2.032  16.4441
  2.030  16.4241
  2.028  16.2882
  2.026  16.1682
  2.024  16.0483
  2.022  15.9201
  2.020  15.7968
  2.018  15.6657
  2.016  15.7149
  2.014  15.4731
  2.012  15.3890
  2.010  15.2741
  2.008  15.1140
  2.006  14.9533
  2.004  14.8303
  2.002  14.7579
  2.000  14.6075
  1.998  14.5253
  1.996  14.5083
  1.994  14.2882
  1.992  14.2036
  1.990  14.2353
  1.988  14.1997
  1.986  14.2132
  1.984  14.3565
  1.982  14.2698
  1.980  14.2738
  1.978  14.4399
  1.976  14.3425
  1.974  14.4085
  1.972  14.5702
  1.970  14.5543
  1.968  14.6987
  1.966  14.7741
  1.964  14.8751
  1.962  14.8022
  1.960  14.9801
  1.958  14.9516
  1.956  15.0578
  1.954  15.1537
  1.952  15.1868
  1.950  15.1185
  1.948  15.0853
  1.946  14.9578
  1.944  15.0204
  1.942  14.9535
  1.940  14.9073
  1.938  14.7618
  1.936  14.6051
  1.934  14.3484
  1.932  14.3742
  1.930  13.9728
  1.928  14.0895
  1.926  13.9346
  1.924  14.3362
  1.922  14.4481
  1.920  14.9122
  1.918  15.4273
  1.916  15.7278
  1.914  16.5068
  1.912  16.7924
  1.910  17.4259
  1.908  17.7949
  1.906  18.7585
  1.904  19.0681
  1.902  19.6678
  1.900  20.0591
  1.898  20.5885
  1.896  21.1260
  1.894  21.3519
  1.892  21.9272
  1.890  22.1219
  1.888  22.4984
  1.886  22.7343
  1.884  22.9146
  1.882  23.0228
  1.880  23.3422
  1.878  23.6752
  1.876  24.0285
  1.874  24.1857
  1.872  24.5172
  1.870  24.7454
  1.868  24.8510
  1.866  25.0036
  1.864  25.1183
  1.862  25.0442
  1.860  25.1560
  1.858  25.2429
  1.856  25.5270
  1.854  25.7010
  1.852  25.6742
  1.850  25.5927
  1.848  25.6352
  1.846  25.6707
  1.844  25.7050
  1.842  25.6203
  1.840  25.7840
  1.838  25.8165
  1.836  25.5565
  1.834  25.6400
  1.832  25.7291
  1.830  25.7903
  1.828  25.5975
  1.826  25.5214
  1.824  25.7478
  1.822  25.3556
  1.820  25.5801
  1.818  25.3834
  1.816  25.5971
  1.814  25.4846
  1.812  25.2740
  1.810  25.3880
  1.808  25.4057
  1.806  25.3086
  1.804  25.2503
  1.802  25.3095
  1.800  25.2168
  1.798  25.1348
  1.796  25.1333
  1.794  24.9294
  1.792  24.9014
  1.790  24.9882
  1.788  24.8474
  1.786  24.6933
  1.784  24.5637
  1.782  24.6713
  1.780  24.5915
  1.778  24.3961
  1.776  24.5742
  1.774  24.4870
  1.772  24.4743
  1.770  24.4101
  1.768  24.3628
  1.766  24.3446
  1.764  24.3524
  1.762  24.4250
  1.760  24.2838
  1.758  24.2971
  1.756  24.3954
  1.754  24.1233
  1.752  23.9977
  1.750  24.2330
  1.748  24.2899
  1.746  24.2789
  1.744  24.2067
  1.742  24.2604
  1.740  24.0386
  1.738  24.0116
  1.736  24.4028
  1.734  24.1371
  1.732  24.1671
  1.730  24.2030
  1.728  24.1694
  1.726  24.3310
  1.724  24.2307
  1.722  24.4025
  1.720  24.2276
  1.718  24.2241
  1.716  24.1952
  1.714  24.4234
  1.712  24.5247
  1.710  24.3641
  1.708  24.2841
  1.706  24.3493
  1.704  24.5337
  1.702  24.3942
  1.700  24.3488
  1.698  24.3490
  1.696  24.4259
  1.694  24.5497
  1.692  24.4339
  1.690  24.6889
  1.688  24.5867
  1.686  24.4912
  1.684  24.5915
  1.682  24.5677
  1.680  24.4680
  1.678  24.5389
  1.676  24.6163
  1.674  24.5249
  1.672  24.6192
  1.670  24.6002
  1.668  24.4414
  1.666  24.5185
  1.664  24.4934
  1.662  24.4343
  1.660  24.4606
  1.658  24.6403
  1.656  24.5020
  1.654  24.5162
  1.652  24.4950
  1.650  24.4858
  1.648  24.5640
  1.646  24.5935
  1.644  24.8164
  1.642  24.6360
  1.640  24.4708
  1.638  24.6756
  1.636  24.7777
  1.634  24.8203
  1.632  24.7197
  1.630  24.6649
  1.628  24.7841
  1.626  24.7673
  1.624  24.6822
  1.622  24.8339
  1.620  24.9275
  1.618  24.8880
  1.616  24.8036
  1.614  24.8175
  1.612  24.9859
  1.610  24.9514
  1.608  24.9745
  1.606  25.0139
  1.604  24.9254
  1.602  25.0158
  1.600  24.9384
  1.598  25.1292
  1.596  25.2202
  1.594  25.0791
  1.592  25.2096
  1.590  25.2106
  1.588  25.1413
  1.586  25.3557
  1.584  25.3436
  1.582  25.2211
  1.580  25.2624
  1.578  25.3199
  1.576  25.2986
  1.574  25.2386
  1.572  25.2399
  1.570  25.1824
  1.568  25.1703
  1.566  25.2104
  1.564  25.2618
  1.562  25.3657
  1.560  25.3353
  1.558  25.3424
  1.556  25.3892
  1.554  25.2266
  1.552  25.2342
  1.550  25.3619
  1.548  25.4155
  1.546  25.4868
  1.544  25.4687
  1.542  25.4859
  1.540  25.4880
  1.538  25.3092
  1.536  25.4984
  1.534  25.6718
  1.532  25.5132
  1.530  25.5083
  1.528  25.5294
  1.526  25.6472
  1.524  25.6259
  1.522  25.4952
  1.520  25.6906
  1.518  25.7422
  1.516  25.5891
  1.514  25.5481
  1.512  25.6133
  1.510  25.8456
  1.508  25.9613
  1.506  25.8680
  1.504  25.8868
  1.502  25.9392
  1.500  25.8043
  1.498  25.7544
  1.496  25.9386
  1.494  25.9287
  1.492  25.6880
  1.490  25.7538
  1.488  25.7512
  1.486  25.7273
  1.484  25.6012
  1.482  25.5450
  1.480  25.3554
  1.478  25.2725
  1.476  25.2259
  1.474  25.3184
  1.472  25.4384
  1.470  25.5229
  1.468  25.3966
  1.466  25.5808
  1.464  25.8242
  1.462  25.7331
  1.460  25.7075
  1.458  25.9809
  1.456  25.7296
  1.454  25.5248
  1.452  25.3542
  1.450  25.4462
  1.448  25.4509
  1.446  25.6058
  1.444  26.1269
  1.442  26.4473
  1.440  26.5080
  1.438  27.0688
  1.436  27.2656
  1.434  27.5140
  1.432  27.8906
  1.430  28.3059
  1.428  28.5955
  1.426  28.3137
  1.424  26.7522
  1.422  23.7178
  1.420  21.4460
  1.418  21.4716
  1.416  24.2281
  1.414  27.6979
  1.412  30.5377
  1.410  33.1857
  1.408  35.5822
  1.406  37.6455
  1.404  39.4358
  1.402  40.7254
  1.400  41.9674
  1.398  42.8908
  1.396  43.4826
  1.394  44.4179
  1.392  45.1712
  1.390  46.1241
  1.388  46.6573
  1.386  47.0752
  1.384  47.5351
  1.382  47.9526
  1.380  48.4761
  1.378  48.3575
  1.376  48.6893
  1.374  49.0313
  1.372  48.9669
  1.370  48.8665
  1.368  49.1168
  1.366  49.3483
  1.364  49.3247
  1.362  49.5088
  1.360  49.6854
  1.358  49.8773
  1.356  49.8558
  1.354  50.1993
  1.352  50.3787
  1.350  50.5130
  1.348  50.8096
  1.346  50.9502
  1.344  51.0027
  1.342  51.0758
  1.340  51.2465
  1.338  51.4787
  1.336  51.9721
  1.334  52.1334
  1.332  52.5607
  1.330  52.7694
  1.328  53.0972
  1.326  53.1019
  1.324  53.5293
  1.322  53.7731
  1.320  53.8147
  1.318  53.8115
  1.316  53.9283
  1.314  54.0047
  1.312  54.1240
  1.310  54.4914
  1.308  54.4604
  1.306  54.3345
  1.304  54.3430
  1.302  54.5617
  1.300  54.6136
  1.298  54.5450
  1.296  54.7729
  1.294  54.6383
  1.292  54.8243
  1.290  54.7346
  1.288  54.7950
  1.286  54.6566
  1.284  54.5673
  1.282  54.5694
  1.280  54.7351
  1.278  54.9924
  1.276  54.6772
  1.274  54.9383
  1.272  54.7287
  1.270  54.8622
  1.268  54.7502
  1.266  54.7389
  1.264  54.6797
  1.262  54.8307
  1.260  54.9976
  1.258  54.9294
  1.256  54.8875
  1.254  54.8865
  1.252  54.7618
  1.250  54.9010
  1.248  54.5355
  1.246  54.7467
  1.244  54.4901
  1.242  54.7524
  1.240  54.7096
  1.238  54.7947
  1.236  54.6640
  1.234  54.7430
  1.232  54.5387
  1.230  54.8132
  1.228  54.6212
  1.226  54.5189
  1.224  54.4496
  1.222  54.4495
  1.220  54.9779
  1.218  55.1906
  1.216  55.0084
  1.214  55.1828
  1.212  55.5126
  1.210  55.3495
  1.208  55.4965
  1.206  55.4085
  1.204  55.4277
  1.202  55.4907
  1.200  55.8355
  1.198  55.7398
  1.196  56.0709
  1.194  55.8417
  1.192  56.2074
  1.190  56.0745
  1.188  56.1670
  1.186  56.4232
  1.184  56.3943
  1.182  56.2443
  1.180  56.5629
  1.178  56.2613
  1.176  56.3339
  1.174  56.3806
  1.172  56.3199
  1.170  56.2164
  1.168  56.2703
  1.166  56.4772
  1.164  56.5675
  1.162  56.8954
  1.160  57.2223
  1.158  57.4260
  1.156  57.8260
  1.154  58.0582
  1.152  58.2469
  1.150  58.4381
  1.148  58.6627
  1.146  58.6714
  1.144  58.7969
  1.142  58.9164
  1.140  58.9190
  1.138  59.1741
  1.136  59.1228
  1.134  59.2397
  1.132  59.0981
  1.130  59.2209
  1.128  59.1499
  1.126  59.0907
  1.124  59.2041
  1.122  59.1420
  1.120  59.1867
  1.118  59.2196
  1.116  59.0754
  1.114  59.2257
  1.112  59.1910
  1.110  59.1839
  1.108  59.2626
  1.106  59.1836
  1.104  59.2381
  1.102  59.2249
  1.100  59.4217
  1.098  59.5395
  1.096  59.3528
  1.094  59.3055
  1.092  59.2897
  1.090  59.2732
  1.088  59.2483
  1.086  59.4627
  1.084  59.2944
  1.082  59.2998
  1.080  59.2546
  1.078  59.3571
  1.076  59.4414
  1.074  59.2384
  1.072  59.3726
  1.070  59.3693
  1.068  59.3254
  1.066  59.4731
  1.064  59.3766
  1.062  59.3143
  1.060  59.3277
  1.058  59.2376
  1.056  59.1432
  1.054  59.1695
  1.052  59.0474
  1.050  59.1743
  1.048  59.0675
  1.046  59.0747
  1.044  59.1650
  1.042  58.9983
  1.040  58.9626
  1.038  58.9747
  1.036  58.8052
  1.034  58.6061
  1.032  58.6165
  1.030  58.7075
  1.028  58.7769
  1.026  58.7219
  1.024  58.6092
  1.022  58.6252
  1.020  58.5910
  1.018  58.4767
  1.016  58.5310
  1.014  58.4844
  1.012  58.3819
  1.010  58.4734
  1.008  58.4491
  1.006  58.3378
  1.004  58.2962
  1.002  58.3309
  1.000  58.2537
  0.998  58.3323
  0.996  58.3256
  0.994  58.1983
  0.992  58.0088
  0.990  57.9369
  0.988  58.0755
  0.986  58.0849
  0.984  57.9364
  0.982  57.8897
  0.980  57.7651
  0.978  57.4529
  0.976  56.9894
  0.974  56.4444
  0.972  55.9674
  0.970  55.9465
  0.968  56.7014
  0.966  57.6180
  0.964  58.1205
  0.962  58.4074
  0.960  58.8289
  0.958  59.0235
  0.956  59.0160
  0.954  59.1204
  0.952  59.1403
  0.950  59.0819
  0.948  59.2494
  0.946  59.3981
  0.944  59.3817
  0.942  59.3027
  0.940  59.3793
  0.938  59.4571
  0.936  59.4262
  0.934  59.5355
  0.932  59.4611
  0.930  59.3279
  0.928  59.3673
  0.926  59.3693
  0.924  59.4386
  0.922  59.4083
  0.920  59.3908
  0.918  59.4027
  0.916  59.2871
  0.914  59.2719
  0.912  59.3324
  0.910  59.2456
  0.908  59.2558
  0.906  59.2805
  0.904  59.1892
  0.902  59.1925
  0.900  59.2685
  0.898  59.5748
  0.896  59.5937
  0.894  59.4356
  0.892  59.5931
  0.890  59.4315
  0.888  59.4615
  0.886  59.6528
  0.884  59.6844
  0.882  59.3308
  0.880  59.3154
  0.878  59.3772
  0.876  59.2502
  0.874  59.5666
  0.872  59.5889
  0.870  59.5365
  0.868  59.3524
  0.866  59.1910
  0.864  59.6754
  0.862  59.6224
  0.860  59.6285
  0.858  59.4913
  0.856  59.3915
  0.854  59.3830
  0.852  59.4054
  0.850  59.4505
  0.848  59.4107
  0.846  59.4105
  0.844  59.4572
  0.842  59.4671
  0.840  59.4687
  0.838  59.3932
  0.836  59.4232
  0.834  59.4712
  0.832  59.4996
  0.830  59.4794
  0.828  59.4631
  0.826  59.4607
  0.824  59.4895
  0.822  59.5090
  0.820  59.4678
  0.818  59.4377
  0.816  59.4165
  0.814  59.4141
  0.812  59.3898
  0.810  59.3342
  0.808  59.3022
  0.806  59.3343
  0.804  59.3104
  0.802  59.3001
  0.800  59.2689
  0.798  59.1905
  0.796  59.1808
  0.794  59.2053
  0.792  59.1705
  0.790  59.1383
  0.788  59.0928
  0.786  59.0623
  0.784  59.0145
  0.782  58.9492
  0.780  58.9703
  0.778  58.9207
  0.776  58.8870
  0.774  58.8906
  0.772  58.8323
  0.770  58.8005
  0.768  58.7762
  0.766  58.7445
  0.764  58.7222
  0.762  58.7013
  0.760  58.6729
  0.758  58.6043
  0.756  58.5950
  0.754  58.5587
  0.752  58.5098
  0.750  58.5064
  0.748  58.4476
  0.746  58.4032
  0.744  58.3410
  0.742  58.3776
  0.740  58.4114
  0.738  58.4303
  0.736  58.4044
  0.734  58.3957
  0.732  58.4172
  0.730  58.4194
  0.728  58.3891
  0.726  58.3899
  0.724  58.3877
  0.722  58.3563
  0.720  58.3810
  0.718  58.3813
  0.716  58.3653
  0.714  58.3868
  0.712  58.3144
  0.710  58.3513
  0.708  58.3332
  0.706  58.3264
  0.704  58.3514
  0.702  58.3407
  0.700  58.3653
  0.698  58.3521
  0.696  58.3260
  0.694  58.3502
  0.692  58.3302
  0.690  58.3387
  0.688  58.3748
  0.686  58.3607
  0.684  58.3672
  0.682  58.3728
  0.680  58.3512
  0.678  58.3495
  0.676  58.3817
  0.674  58.3671
  0.672  58.3749
  0.670  58.3681
  0.668  58.3774
  0.666  58.3910
  0.664  58.3589
  0.662  58.3459
  0.660  58.3717
  0.658  58.3679
  0.656  58.3538
  0.654  58.3645
  0.652  58.3487
  0.650  58.3578
  0.648  58.3241
  0.646  58.3381
  0.644  58.3229
  0.642  58.3060
  0.640  58.3235
  0.638  58.2852
  0.636  58.2740
  0.634  58.2601
  0.632  58.2582
  0.630  58.2636
  0.628  58.2423
  0.626  58.2334
  0.624  58.1901
  0.622  58.2076
  0.620  58.2167
  0.618  58.1732
  0.616  58.1810
  0.614  58.1228
  0.612  58.1545
  0.610  58.1454
  0.608  58.1197
  0.606  58.0767
  0.604  58.0696
  0.602  58.0651
  0.600  58.0391
  0.598  57.9857
  0.596  57.9921
  0.594  57.9589
  0.592  57.9391
  0.590  57.8956
  0.588  57.9128
  0.586  57.8382
  0.584  57.8075
  0.582  57.7882
  0.580  57.7374
  0.578  57.6993
  0.576  57.6583
  0.574  57.6189
  0.572  57.6064
  0.570  57.5446
  0.568  57.5069
  0.566  57.4440
  0.564  57.3844
  0.562  57.3404
  0.560  57.2891
  0.558  57.2199
  0.556  57.1426
  0.554  57.0815
  0.552  57.0050
  0.550  56.9531
  0.548  56.8805
  0.546  56.7871
  0.544  56.7257
  0.542  56.6217
  0.540  56.5397
  0.538  56.4642
  0.536  56.3805
  0.534  56.2767
  0.532  56.1893
  0.530  56.0787
  0.528  55.9830
  0.526  55.8876
  0.524  55.7836
  0.522  55.6569
  0.520  55.5715
  0.518  55.4717
  0.516  55.3449
  0.514  55.2492
  0.512  55.1459
  0.510  55.0402
  0.508  54.9395
  0.506  54.8447
  0.504  54.7404
  0.502  54.6387
  0.500  54.5238
  0.498  54.4092
  0.496  54.3206
  0.494  54.2158
  0.492  54.1127
  0.490  54.0363
  0.488  53.9297
  0.486  53.8145
  0.484  53.7010
  0.482  53.6034
  0.480  53.5279
  0.478  53.4454
  0.476  53.3600
  0.474  53.2854
  0.472  53.2148
  0.470  53.1158
  0.468  53.0285
  0.466  52.9530
  0.464  52.8623
  0.462  52.7965
  0.460  52.7191
  0.458  52.6104
  0.456  52.5132
  0.454  52.4178
  0.452  52.3167
  0.450  52.2199
  0.448  52.0984
  0.446  51.9578
  0.444  51.8306
  0.442  51.7129
  0.440  51.6015
  0.438  51.4708
  0.436  51.3647
  0.434  51.2307
  0.432  51.0944
  0.430  50.9859
  0.428  50.8608
  0.426  50.7402
  0.424  50.6421
  0.422  50.5316
  0.420  50.4271
  0.418  50.3422
  0.416  50.2399
  0.414  50.1187
  0.412  50.0296
  0.410  49.9484
  0.408  49.8426
  0.406  49.7597
  0.404  49.6886
  0.402  49.5973
  0.400  49.5101
