Name: Kaliborite KHMg2B12O16(OH)10 * 4H2O
Type: Mineral
Class: Borate
Subclass: None
Particle Size: Unsieved coarse powder
Sample No.: NMNH 160075
Owner: Smithsonian Institute, National Museum of Nat. History
Wavelength range: 0.40 - 14.05 um
Origin: Spain

Description: Kaliborite from Spain





Measurement: Directional Hemispherical Reflectance
First Column: X
Second Column: Y
X Units: Wavelength (micrometers)
Y Units: Reflectance (percent)
First X Value: 14.05105
Last X Value: 0.40000
Number of X Values: 2756
Additional Information: None

 14.051   2.7192
 14.013   2.7810
 13.975   3.0900
 13.938   3.1827
 13.900   3.3372
 13.863   3.4093
 13.826   3.5123
 13.790   3.4917
 13.753   3.6050
 13.717   3.6153
 13.680   3.5329
 13.644   3.3269
 13.609   3.1930
 13.573   2.9767
 13.538   2.8222
 13.502   2.6883
 13.467   2.6780
 13.432   2.6883
 13.398   2.7707
 13.363   2.7398
 13.329   2.8119
 13.295   2.8943
 13.261   3.0179
 13.227   2.9870
 13.193   2.9149
 13.160   2.6780
 13.126   2.4308
 13.093   2.2145
 13.060   2.2763
 13.027   2.3381
 12.995   2.4617
 12.962   2.5235
 12.930   2.6471
 12.898   2.7089
 12.866   2.8016
 12.834   2.7913
 12.802   2.8531
 12.771   2.8531
 12.739   2.9664
 12.708   2.9767
 12.677   2.9664
 12.646   2.9458
 12.616   3.0076
 12.585   3.0076
 12.554   2.9561
 12.524   2.8531
 12.494   2.8737
 12.464   2.7913
 12.434   2.7192
 12.404   2.5750
 12.375   2.5647
 12.345   2.5647
 12.316   2.5441
 12.287   2.4926
 12.258   2.5750
 12.229   2.6162
 12.200   2.7089
 12.171   2.7913
 12.143   2.9046
 12.115   2.9458
 12.086   3.0694
 12.058   3.1003
 12.030   3.1209
 12.002   3.0488
 11.975   3.0900
 11.947   3.1930
 11.920   3.2754
 11.892   3.3166
 11.865   3.4196
 11.838   3.5432
 11.811   3.7595
 11.784   3.9346
 11.757   4.1200
 11.731   4.1612
 11.704   4.2642
 11.678   4.3878
 11.652   4.4599
 11.626   4.4393
 11.600   4.5526
 11.574   4.6041
 11.548   4.7174
 11.522   4.7689
 11.497   4.8101
 11.471   4.7895
 11.446   4.7998
 11.421   4.8307
 11.396   4.9234
 11.371   4.9131
 11.346   4.8616
 11.321   4.7998
 11.297   4.7998
 11.272   4.7998
 11.248   4.9028
 11.223   4.8410
 11.199   4.7792
 11.175   4.7586
 11.151   4.7483
 11.127   4.6350
 11.103   4.5629
 11.079   4.5217
 11.056   4.6762
 11.032   4.8410
 11.009   4.9749
 10.985   4.9749
 10.962   5.0264
 10.939   5.0573
 10.916   5.0779
 10.893   5.0367
 10.870   5.0058
 10.848   4.9028
 10.825   4.8204
 10.802   4.6762
 10.780   4.4290
 10.758   4.0479
 10.735   3.6874
 10.713   3.2857
 10.691   2.9355
 10.669   2.6265
 10.647   2.4926
 10.625   2.3999
 10.604   2.3484
 10.582   2.3587
 10.560   2.5235
 10.539   2.6162
 10.518   2.6780
 10.496   2.7707
 10.475   3.0179
 10.454   3.1930
 10.433   3.4196
 10.412   3.6462
 10.391   3.8522
 10.370   3.9655
 10.350   4.0685
 10.329   4.1303
 10.309   4.1509
 10.288   4.0582
 10.268   3.9655
 10.247   3.8110
 10.227   3.7183
 10.207   3.6256
 10.187   3.5844
 10.167   3.6359
 10.147   3.7801
 10.127   3.8110
 10.108   3.8316
 10.088   3.7801
 10.068   3.7904
 10.049   3.7080
 10.029   3.5432
 10.010   3.4093
  9.991   3.3578
  9.972   3.2754
  9.952   3.3166
  9.933   3.3681
  9.914   3.4196
  9.895   3.4917
  9.877   3.6153
  9.858   3.6359
  9.839   3.6256
  9.821   3.6359
  9.802   3.7286
  9.783   3.7904
  9.765   3.8728
  9.747   3.9552
  9.728   4.0788
  9.710   4.1406
  9.692   4.2024
  9.674   4.2642
  9.656   4.3981
  9.638   4.4702
  9.620   4.5320
  9.602   4.5835
  9.585   4.6556
  9.567   4.7174
  9.549   4.8410
  9.532   4.8719
  9.514   4.9028
  9.497   4.9543
  9.479   5.0058
  9.462   4.9131
  9.445   4.8513
  9.428   4.6968
  9.411   4.5526
  9.394   4.3466
  9.377   4.1406
  9.360   3.8522
  9.343   3.6462
  9.326   3.3990
  9.309   3.1827
  9.293   2.9664
  9.276   2.8119
  9.259   2.6368
  9.243   2.4514
  9.226   2.2351
  9.210   2.1321
  9.194   2.0394
  9.178   2.0188
  9.161   1.9673
  9.145   2.0394
  9.129   2.1218
  9.113   2.2248
  9.097   2.3690
  9.081   2.5647
  9.065   2.6368
  9.049   2.7398
  9.034   2.8222
  9.018   2.9149
  9.002   2.8428
  8.987   2.7089
  8.971   2.5544
  8.956   2.4514
  8.940   2.2969
  8.925   2.1836
  8.909   1.9982
  8.894   1.8952
  8.879   1.8128
  8.864   1.7510
  8.849   1.6377
  8.834   1.5244
  8.819   1.3493
  8.804   1.3287
  8.789   1.3081
  8.774   1.3081
  8.759   1.2154
  8.744   1.1742
  8.730   1.1536
  8.715   1.2051
  8.700   1.2154
  8.686   1.2463
  8.671   1.2669
  8.657   1.3699
  8.642   1.4523
  8.628   1.4832
  8.614   1.5244
  8.599   1.6171
  8.585   1.6274
  8.571   1.7201
  8.557   1.7716
  8.543   1.8025
  8.529   1.8437
  8.515   1.9055
  8.501   1.9158
  8.487   1.9467
  8.473   1.9261
  8.459   1.9158
  8.445   1.8437
  8.431   1.7510
  8.418   1.6171
  8.404   1.5656
  8.391   1.4729
  8.377   1.3699
  8.363   1.2772
  8.350   1.2463
  8.337   1.2360
  8.323   1.2669
  8.310   1.2566
  8.297   1.3081
  8.283   1.3081
  8.270   1.2978
  8.257   1.3184
  8.244   1.3802
  8.231   1.3596
  8.218   1.3699
  8.205   1.3699
  8.192   1.3699
  8.179   1.3287
  8.166   1.3390
  8.153   1.3390
  8.140   1.3699
  8.128   1.4008
  8.115   1.3905
  8.102   1.3699
  8.090   1.4626
  8.077   1.5141
  8.064   1.6274
  8.052   1.7201
  8.039   1.7407
  8.027   1.7819
  8.015   1.8952
  8.002   1.9364
  7.990   1.9982
  7.978   2.0497
  7.965   2.1424
  7.953   2.1527
  7.941   2.1321
  7.929   2.1321
  7.917   2.1733
  7.905   2.1836
  7.893   2.1939
  7.881   2.2351
  7.869   2.3484
  7.857   2.4926
  7.845   2.6986
  7.833   2.8634
  7.821   3.0488
  7.809   3.2445
  7.798   3.4608
  7.786   3.6977
  7.774   3.9861
  7.763   4.2127
  7.751   4.3981
  7.739   4.5114
  7.728   4.6247
  7.716   4.6556
  7.705   4.5732
  7.694   4.4187
  7.682   4.2539
  7.671   4.0170
  7.659   3.7080
  7.648   3.4093
  7.637   3.1930
  7.626   2.9973
  7.614   2.8840
  7.603   2.8016
  7.592   2.7707
  7.581   2.7707
  7.570   2.8428
  7.559   2.9252
  7.548   3.0591
  7.537   3.1930
  7.526   3.3578
  7.515   3.4814
  7.504   3.5947
  7.493   3.6874
  7.483   3.8316
  7.472   3.8831
  7.461   3.9140
  7.450   3.9140
  7.440   3.9037
  7.429   3.8625
  7.418   3.8213
  7.408   3.7801
  7.397   3.7904
  7.387   3.8110
  7.376   3.8625
  7.366   3.9037
  7.355   3.9964
  7.345   4.0891
  7.334   4.1921
  7.324   4.2539
  7.314   4.2848
  7.303   4.2230
  7.293   4.1200
  7.283   3.9552
  7.273   3.8831
  7.263   3.7904
  7.252   3.6153
  7.242   3.4299
  7.232   3.2857
  7.222   3.1415
  7.212   3.0694
  7.202   2.9458
  7.192   2.8222
  7.182   2.7501
  7.172   2.6574
  7.162   2.4823
  7.152   2.3587
  7.143   2.2145
  7.133   2.1218
  7.123   2.0806
  7.113   2.0497
  7.103   1.9570
  7.094   1.9158
  7.084   1.9055
  7.074   1.9158
  7.065   1.9055
  7.055   1.9261
  7.046   1.8952
  7.036   1.9261
  7.026   1.9467
  7.017   1.9673
  7.007   1.9776
  6.998   1.9879
  6.989   1.9673
  6.979   1.9982
  6.970   2.0085
  6.960   2.0291
  6.951   2.0188
  6.942   2.0085
  6.932   1.9776
  6.923   1.9673
  6.914   1.9467
  6.905   1.9261
  6.896   1.9158
  6.886   1.9055
  6.877   1.8643
  6.868   1.8643
  6.859   1.8231
  6.850   1.7407
  6.841   1.6583
  6.832   1.6171
  6.823   1.5450
  6.814   1.4420
  6.805   1.3802
  6.796   1.3699
  6.787   1.3596
  6.778   1.3493
  6.770   1.2978
  6.761   1.2978
  6.752   1.2875
  6.743   1.2669
  6.734   1.2257
  6.726   1.2154
  6.717   1.2051
  6.708   1.2051
  6.700   1.1845
  6.691   1.1433
  6.682   1.1021
  6.674   1.1124
  6.665   1.1124
  6.657   1.1021
  6.648   1.0815
  6.640   1.0918
  6.631   1.1021
  6.623   1.1021
  6.614   1.0815
  6.606   1.0712
  6.597   1.0712
  6.589   1.0918
  6.581   1.0506
  6.572   1.0094
  6.564   0.9270
  6.556   0.8652
  6.547   0.7828
  6.539   0.7107
  6.531   0.6489
  6.523   0.6180
  6.514   0.5768
  6.506   0.5459
  6.498   0.5253
  6.490   0.5047
  6.482   0.4841
  6.474   0.4944
  6.466   0.4944
  6.458   0.4841
  6.450   0.4429
  6.442   0.4841
  6.434   0.5047
  6.426   0.4944
  6.418   0.4841
  6.410   0.5047
  6.402   0.4944
  6.394   0.4738
  6.386   0.4429
  6.378   0.4635
  6.370   0.4944
  6.363   0.5253
  6.355   0.4738
  6.347   0.4635
  6.339   0.4841
  6.332   0.5150
  6.324   0.5356
  6.316   0.5459
  6.308   0.5562
  6.301   0.5665
  6.293   0.5562
  6.286   0.5665
  6.278   0.5768
  6.270   0.5665
  6.263   0.5356
  6.255   0.5253
  6.248   0.5459
  6.240   0.5459
  6.233   0.5356
  6.225   0.5768
  6.218   0.5459
  6.210   0.5253
  6.203   0.5356
  6.195   0.5356
  6.188   0.5459
  6.181   0.5665
  6.173   0.5253
  6.166   0.5356
  6.159   0.5356
  6.151   0.5459
  6.144   0.5150
  6.137   0.5047
  6.130   0.5253
  6.122   0.5356
  6.115   0.5253
  6.108   0.5459
  6.101   0.5665
  6.094   0.5974
  6.086   0.6180
  6.079   0.6077
  6.072   0.5768
  6.065   0.5768
  6.058   0.5871
  6.051   0.5871
  6.044   0.5768
  6.037   0.6077
  6.030   0.6077
  6.023   0.6386
  6.016   0.6180
  6.009   0.5974
  6.002   0.5871
  5.995   0.6180
  5.988   0.6283
  5.981   0.6283
  5.974   0.6180
  5.967   0.6180
  5.960   0.5974
  5.954   0.6077
  5.947   0.6489
  5.940   0.6798
  5.933   0.6489
  5.926   0.6386
  5.920   0.6489
  5.913   0.6592
  5.906   0.6592
  5.899   0.6798
  5.893   0.7107
  5.886   0.7313
  5.879   0.7210
  5.873   0.7416
  5.866   0.7313
  5.859   0.7416
  5.853   0.7416
  5.846   0.7416
  5.840   0.7210
  5.833   0.7416
  5.827   0.7416
  5.820   0.7931
  5.813   0.8137
  5.807   0.7828
  5.800   0.7622
  5.794   0.7828
  5.788   0.7931
  5.781   0.8034
  5.775   0.8034
  5.768   0.8137
  5.762   0.7931
  5.755   0.7828
  5.749   0.8034
  5.743   0.8343
  5.736   0.8549
  5.730   0.8652
  5.724   0.8549
  5.717   0.8652
  5.711   0.8858
  5.705   0.8755
  5.698   0.8858
  5.692   0.8858
  5.686   0.8858
  5.680   0.8755
  5.674   0.8755
  5.667   0.9064
  5.661   0.9270
  5.655   0.9373
  5.649   0.9167
  5.643   0.9373
  5.637   0.9270
  5.630   0.9167
  5.624   0.9064
  5.618   0.9270
  5.612   0.9579
  5.606   0.9785
  5.600   0.9888
  5.594   1.0094
  5.588   1.0300
  5.582   1.0506
  5.576   1.0403
  5.570   1.0506
  5.564   1.0506
  5.558   1.0300
  5.552   1.0403
  5.546   1.0403
  5.540   1.0506
  5.534   1.0815
  5.528   1.1021
  5.523   1.1021
  5.517   1.0609
  5.511   1.0609
  5.505   1.0815
  5.499   1.1330
  5.493   1.1124
  5.487   1.1124
  5.482   1.1124
  5.476   1.1124
  5.470   1.1433
  5.464   1.1536
  5.459   1.1536
  5.453   1.1639
  5.447   1.1742
  5.441   1.1845
  5.436   1.1845
  5.430   1.1845
  5.424   1.1845
  5.419   1.1948
  5.413   1.1742
  5.407   1.1948
  5.402   1.2154
  5.396   1.2257
  5.390   1.2463
  5.385   1.2566
  5.379   1.2463
  5.374   1.2772
  5.368   1.2772
  5.363   1.2669
  5.357   1.2669
  5.352   1.2772
  5.346   1.2669
  5.341   1.2772
  5.335   1.2772
  5.330   1.2875
  5.324   1.2978
  5.319   1.2978
  5.313   1.2875
  5.308   1.3081
  5.302   1.3390
  5.297   1.3287
  5.291   1.3390
  5.286   1.3905
  5.281   1.4111
  5.275   1.3699
  5.270   1.3493
  5.265   1.3802
  5.259   1.4111
  5.254   1.4317
  5.249   1.4317
  5.243   1.4729
  5.238   1.4420
  5.233   1.4214
  5.227   1.4523
  5.222   1.4626
  5.217   1.4626
  5.212   1.4729
  5.206   1.4420
  5.201   1.4214
  5.196   1.4317
  5.191   1.4420
  5.186   1.4626
  5.180   1.4935
  5.175   1.4935
  5.170   1.4729
  5.165   1.4832
  5.160   1.5244
  5.155   1.5347
  5.150   1.5656
  5.145   1.5656
  5.139   1.5450
  5.134   1.5141
  5.129   1.5347
  5.124   1.5553
  5.119   1.5553
  5.114   1.5244
  5.109   1.5347
  5.104   1.5759
  5.099   1.5965
  5.094   1.5656
  5.089   1.5965
  5.084   1.6274
  5.079   1.6274
  5.074   1.6171
  5.069   1.5862
  5.064   1.5862
  5.059   1.6377
  5.054   1.6068
  5.049   1.5759
  5.044   1.5965
  5.040   1.6274
  5.035   1.6274
  5.030   1.6171
  5.025   1.5965
  5.020   1.5862
  5.015   1.6068
  5.010   1.6274
  5.005   1.6377
  5.001   1.6583
  4.996   1.6789
  4.991   1.6686
  4.986   1.6377
  4.981   1.6274
  4.977   1.6171
  4.972   1.6274
  4.967   1.6583
  4.962   1.6480
  4.958   1.6171
  4.953   1.5965
  4.948   1.6171
  4.943   1.6377
  4.939   1.6377
  4.934   1.6171
  4.929   1.6377
  4.925   1.6789
  4.920   1.6686
  4.915   1.6377
  4.911   1.6686
  4.906   1.6995
  4.901   1.6583
  4.897   1.6068
  4.892   1.6274
  4.888   1.6789
  4.883   1.6892
  4.878   1.6892
  4.874   1.6686
  4.869   1.6995
  4.865   1.7201
  4.860   1.6995
  4.856   1.6789
  4.851   1.6789
  4.846   1.6892
  4.842   1.6995
  4.837   1.6995
  4.833   1.6892
  4.828   1.7201
  4.824   1.7304
  4.819   1.6892
  4.815   1.6995
  4.810   1.7407
  4.806   1.7510
  4.802   1.7510
  4.797   1.7304
  4.793   1.7304
  4.788   1.7510
  4.784   1.7716
  4.779   1.7510
  4.775   1.7304
  4.771   1.7613
  4.766   1.7922
  4.762   1.8025
  4.758   1.8025
  4.753   1.8128
  4.749   1.8334
  4.744   1.8231
  4.740   1.8334
  4.736   1.8231
  4.731   1.8025
  4.727   1.8334
  4.723   1.8540
  4.719   1.8746
  4.714   1.8849
  4.710   1.8540
  4.706   1.8334
  4.701   1.8334
  4.697   1.8540
  4.693   1.8643
  4.689   1.8540
  4.684   1.8746
  4.680   1.8643
  4.676   1.8643
  4.672   1.8952
  4.668   1.9158
  4.663   1.8643
  4.659   1.8334
  4.655   1.8540
  4.651   1.8643
  4.647   1.8437
  4.643   1.8437
  4.638   1.8540
  4.634   1.8746
  4.630   1.9158
  4.626   1.8952
  4.622   1.8643
  4.618   1.8849
  4.614   1.8952
  4.610   1.9158
  4.605   1.9055
  4.601   1.8849
  4.597   1.8849
  4.593   1.8643
  4.589   1.8746
  4.585   1.8849
  4.581   1.8746
  4.577   1.8746
  4.573   1.8849
  4.569   1.9158
  4.565   1.9261
  4.561   1.9158
  4.557   1.9158
  4.553   1.9055
  4.549   1.9055
  4.545   1.9261
  4.541   1.9364
  4.537   1.9158
  4.533   1.9261
  4.529   1.9467
  4.525   1.9364
  4.521   1.9055
  4.517   1.8643
  4.513   1.8540
  4.509   1.8952
  4.505   1.8746
  4.502   1.8540
  4.498   1.8437
  4.494   1.8540
  4.490   1.8643
  4.486   1.8540
  4.482   1.8643
  4.478   1.8746
  4.474   1.8540
  4.470   1.8746
  4.467   1.8540
  4.463   1.8643
  4.459   1.8746
  4.455   1.8437
  4.451   1.8025
  4.447   1.8334
  4.444   1.8746
  4.440   1.8746
  4.436   1.8746
  4.432   1.9055
  4.428   1.8849
  4.425   1.8849
  4.421   1.8849
  4.417   1.8746
  4.413   1.8643
  4.410   1.8231
  4.406   1.8334
  4.402   1.8746
  4.398   1.8643
  4.395   1.8540
  4.391   1.8746
  4.387   1.8746
  4.384   1.8746
  4.380   1.9055
  4.376   1.8849
  4.372   1.8437
  4.369   1.8231
  4.365   1.8540
  4.361   1.9055
  4.358   1.9467
  4.354   1.9261
  4.350   1.9158
  4.347   1.9364
  4.343   1.9158
  4.340   1.9364
  4.336   1.9879
  4.332   1.9776
  4.329   1.9570
  4.325   1.9879
  4.321   2.0188
  4.318   1.9879
  4.314   1.9570
  4.311   1.9570
  4.307   1.9673
  4.304   1.9879
  4.300   2.0085
  4.296   2.0188
  4.293   2.0291
  4.289   2.0497
  4.286   2.0600
  4.282   2.0291
  4.279   2.0703
  4.275   2.0909
  4.272   2.0600
  4.268   2.0394
  4.265   2.0188
  4.261   2.0188
  4.258   2.0703
  4.254   2.0909
  4.251   2.1321
  4.247   2.1321
  4.244   2.1218
  4.240   2.1218
  4.237   2.1218
  4.233   2.1218
  4.230   2.1424
  4.226   2.1218
  4.223   2.0497
  4.219   2.0703
  4.216   2.0909
  4.213   2.0497
  4.209   2.0394
  4.206   2.0497
  4.202   2.0497
  4.199   2.0806
  4.196   2.1218
  4.192   2.1012
  4.189   2.0703
  4.185   2.0703
  4.182   2.0600
  4.179   2.0600
  4.175   2.0497
  4.172   2.0085
  4.169   2.0291
  4.165   2.0394
  4.162   2.0497
  4.159   2.0600
  4.155   2.0806
  4.152   2.0703
  4.149   2.0497
  4.145   1.9982
  4.142   2.0188
  4.139   2.0291
  4.135   1.9982
  4.132   1.9673
  4.129   2.0291
  4.126   1.9879
  4.122   1.9467
  4.119   1.9776
  4.116   1.9982
  4.112   1.9982
  4.109   1.9364
  4.106   1.9467
  4.103   2.0085
  4.099   1.9879
  4.096   1.9673
  4.093   1.9673
  4.090   1.9467
  4.086   1.9261
  4.083   1.9364
  4.080   1.9055
  4.077   1.8849
  4.074   1.9158
  4.070   1.9055
  4.067   1.9055
  4.064   1.9158
  4.061   1.9055
  4.058   1.9055
  4.055   1.8746
  4.051   1.8540
  4.048   1.8643
  4.045   1.8334
  4.042   1.8437
  4.039   1.8334
  4.036   1.8334
  4.032   1.8849
  4.029   1.8849
  4.026   1.9158
  4.023   1.9055
  4.020   1.8952
  4.017   1.8746
  4.014   1.8437
  4.011   1.8025
  4.008   1.8437
  4.004   1.8746
  4.001   1.9261
  3.998   1.9158
  3.995   1.8643
  3.992   1.8952
  3.989   1.9570
  3.986   1.9673
  3.983   1.9776
  3.980   1.9776
  3.977   1.9467
  3.974   1.8952
  3.971   1.9467
  3.968   2.0085
  3.965   1.9982
  3.962   2.0188
  3.959   2.0497
  3.956   2.0909
  3.953   2.1012
  3.950   2.0703
  3.947   2.0806
  3.944   2.0909
  3.941   2.0806
  3.938   2.0600
  3.935   2.0909
  3.932   2.1321
  3.929   2.1218
  3.926   2.0909
  3.923   2.1424
  3.920   2.1630
  3.917   2.1321
  3.914   2.1527
  3.911   2.1630
  3.908   2.1424
  3.905   2.1218
  3.902   2.0806
  3.899   2.1012
  3.896   2.1218
  3.893   2.1115
  3.890   2.1321
  3.887   2.1733
  3.884   2.1733
  3.882   2.1527
  3.879   2.1321
  3.876   2.1218
  3.873   2.1424
  3.870   2.1630
  3.867   2.1321
  3.864   2.1218
  3.861   2.0703
  3.858   2.0806
  3.856   2.1115
  3.853   2.1424
  3.850   2.1527
  3.847   2.1527
  3.844   2.1527
  3.841   2.1836
  3.838   2.1424
  3.836   2.1321
  3.833   2.0806
  3.830   2.0703
  3.827   2.1321
  3.824   2.2042
  3.822   2.2042
  3.819   2.1630
  3.816   2.1630
  3.813   2.2042
  3.810   2.1424
  3.807   2.0806
  3.805   2.1012
  3.802   2.1424
  3.799   2.1321
  3.796   2.1218
  3.794   2.1424
  3.791   2.1630
  3.788   2.1115
  3.785   2.0909
  3.782   2.0909
  3.780   2.1527
  3.777   2.1527
  3.774   2.1115
  3.771   2.1115
  3.769   2.1527
  3.766   2.1012
  3.763   2.1115
  3.761   2.2042
  3.758   2.2145
  3.755   2.1218
  3.752   2.0703
  3.750   2.0394
  3.747   2.0806
  3.744   2.1321
  3.742   2.1321
  3.739   2.0909
  3.736   2.0909
  3.733   2.1321
  3.731   2.1527
  3.728   2.1115
  3.725   2.0703
  3.723   2.0806
  3.720   2.1424
  3.717   2.1424
  3.715   2.1218
  3.712   2.1321
  3.709   2.1218
  3.707   2.0909
  3.704   2.1012
  3.702   2.1527
  3.699   2.1836
  3.696   2.2042
  3.694   2.1939
  3.691   2.1218
  3.688   2.1218
  3.686   2.1527
  3.683   2.1630
  3.680   2.1630
  3.678   2.1630
  3.675   2.1321
  3.673   2.1527
  3.670   2.1630
  3.667   2.1424
  3.665   2.0703
  3.662   2.0806
  3.660   2.1218
  3.657   2.1321
  3.655   2.1115
  3.652   2.1424
  3.649   2.2145
  3.647   2.2454
  3.644   2.1939
  3.642   2.1527
  3.639   2.1012
  3.637   2.0806
  3.634   2.0806
  3.632   2.1012
  3.629   2.0909
  3.626   2.1012
  3.624   2.1321
  3.621   2.1218
  3.619   2.1115
  3.616   2.1424
  3.614   2.0703
  3.611   2.0394
  3.609   2.0806
  3.606   2.0909
  3.604   2.0806
  3.601   2.0703
  3.599   2.1115
  3.596   2.1115
  3.594   2.1012
  3.591   2.1218
  3.589   2.0909
  3.586   2.0806
  3.584   2.0703
  3.581   2.0703
  3.579   2.0909
  3.576   2.0806
  3.574   2.0394
  3.571   2.0600
  3.569   2.0600
  3.567   2.0600
  3.564   2.0394
  3.562   2.0497
  3.559   2.0806
  3.557   2.0703
  3.554   2.0291
  3.552   1.9879
  3.549   1.9673
  3.547   2.0085
  3.545   2.0497
  3.542   2.0909
  3.540   2.0600
  3.537   2.0394
  3.535   1.9982
  3.533   1.9879
  3.530   1.9673
  3.528   1.9982
  3.525   1.9776
  3.523   1.9467
  3.521   1.9570
  3.518   1.9570
  3.516   1.9261
  3.513   1.9467
  3.511   1.9467
  3.509   1.9467
  3.506   1.9570
  3.504   2.0188
  3.502   2.0394
  3.499   2.0497
  3.497   1.9879
  3.494   1.9158
  3.492   1.9055
  3.490   1.9776
  3.487   1.8952
  3.485   1.8746
  3.483   1.8849
  3.480   1.9055
  3.478   1.8849
  3.476   1.8437
  3.473   1.8746
  3.471   1.9158
  3.469   1.9467
  3.466   1.9467
  3.464   1.8540
  3.462   1.8437
  3.460   1.8746
  3.457   1.9158
  3.455   1.9158
  3.453   1.8746
  3.450   1.8437
  3.448   1.8334
  3.446   1.8231
  3.443   1.8334
  3.441   1.8128
  3.439   1.8334
  3.437   1.8437
  3.434   1.8128
  3.432   1.7716
  3.430   1.8128
  3.428   1.8231
  3.425   1.7922
  3.423   1.7716
  3.421   1.7716
  3.418   1.8025
  3.416   1.8025
  3.414   1.7407
  3.412   1.7304
  3.409   1.7407
  3.407   1.8128
  3.405   1.8025
  3.403   1.8025
  3.401   1.7613
  3.398   1.7201
  3.396   1.7201
  3.394   1.6892
  3.392   1.6892
  3.389   1.7098
  3.387   1.6995
  3.385   1.7510
  3.383   1.7716
  3.381   1.7201
  3.378   1.6583
  3.376   1.6377
  3.374   1.6789
  3.372   1.7304
  3.370   1.6789
  3.367   1.5965
  3.365   1.6377
  3.363   1.6892
  3.361   1.6995
  3.359   1.7098
  3.357   1.6789
  3.354   1.6583
  3.352   1.6377
  3.350   1.6583
  3.348   1.6892
  3.346   1.6274
  3.344   1.6068
  3.341   1.6171
  3.339   1.6171
  3.337   1.6377
  3.335   1.6171
  3.333   1.6274
  3.331   1.6171
  3.329   1.6171
  3.326   1.5965
  3.324   1.6068
  3.322   1.5656
  3.320   1.5656
  3.318   1.5965
  3.316   1.5553
  3.314   1.5347
  3.312   1.6068
  3.309   1.5862
  3.307   1.5347
  3.305   1.5244
  3.303   1.5347
  3.301   1.5244
  3.299   1.5347
  3.297   1.5450
  3.295   1.5450
  3.293   1.4935
  3.291   1.4729
  3.288   1.4729
  3.286   1.4935
  3.284   1.4935
  3.282   1.4935
  3.280   1.4832
  3.278   1.5141
  3.276   1.5038
  3.274   1.5038
  3.272   1.4729
  3.270   1.4832
  3.268   1.4832
  3.266   1.4729
  3.264   1.4626
  3.262   1.4935
  3.259   1.4935
  3.257   1.5038
  3.255   1.4935
  3.253   1.4832
  3.251   1.4935
  3.249   1.4626
  3.247   1.3596
  3.245   1.3699
  3.243   1.3905
  3.241   1.3802
  3.239   1.3802
  3.237   1.4523
  3.235   1.5038
  3.233   1.5141
  3.231   1.4420
  3.229   1.4111
  3.227   1.4626
  3.225   1.5141
  3.223   1.4626
  3.221   1.4214
  3.219   1.4214
  3.217   1.4832
  3.215   1.4523
  3.213   1.4111
  3.211   1.4420
  3.209   1.4523
  3.207   1.4523
  3.205   1.4729
  3.203   1.4523
  3.201   1.4317
  3.199   1.4420
  3.197   1.4214
  3.195   1.4008
  3.193   1.4626
  3.191   1.4729
  3.189   1.3699
  3.187   1.3184
  3.185   1.4523
  3.183   1.5141
  3.182   1.5141
  3.180   1.4729
  3.178   1.4935
  3.176   1.5347
  3.174   1.4832
  3.172   1.4523
  3.170   1.4832
  3.168   1.4729
  3.166   1.4626
  3.164   1.4832
  3.162   1.5244
  3.160   1.4935
  3.158   1.4420
  3.156   1.3905
  3.154   1.4420
  3.152   1.4832
  3.151   1.5141
  3.149   1.4317
  3.147   1.3493
  3.145   1.3699
  3.143   1.3802
  3.141   1.3390
  3.139   1.3390
  3.137   1.3287
  3.135   1.3390
  3.133   1.3493
  3.132   1.3390
  3.130   1.2463
  3.128   1.2360
  3.126   1.2360
  3.124   1.2360
  3.122   1.2154
  3.120   1.1227
  3.118   1.0609
  3.117   1.1536
  3.115   1.2978
  3.113   1.2669
  3.111   1.1639
  3.109   1.2051
  3.107   1.2257
  3.105   1.1845
  3.103   1.1330
  3.102   1.1433
  3.100   1.1227
  3.098   1.2051
  3.096   1.2051
  3.094   1.1948
  3.092   1.1845
  3.091   1.1845
  3.089   1.1536
  3.087   1.1845
  3.085   1.1845
  3.083   1.2257
  3.081   1.2463
  3.079   1.1948
  3.078   1.1639
  3.076   1.2051
  3.074   1.1742
  3.072   1.1639
  3.070   1.1433
  3.069   1.1845
  3.067   1.1742
  3.065   1.2051
  3.063   1.2051
  3.061   1.2051
  3.060   1.2669
  3.058   1.3390
  3.056   1.2875
  3.054   1.2463
  3.052   1.2566
  3.051   1.2772
  3.049   1.2360
  3.047   1.2154
  3.045   1.1948
  3.043   1.2360
  3.042   1.2566
  3.040   1.2463
  3.038   1.2566
  3.036   1.2875
  3.034   1.2360
  3.033   1.2154
  3.031   1.2257
  3.029   1.2154
  3.027   1.2772
  3.026   1.2978
  3.024   1.2257
  3.022   1.2669
  3.020   1.2978
  3.019   1.2875
  3.017   1.2875
  3.015   1.3287
  3.013   1.2875
  3.012   1.2154
  3.010   1.1433
  3.008   1.2257
  3.006   1.3184
  3.005   1.4214
  3.003   1.4420
  3.001   1.4214
  2.999   1.4523
  2.998   1.3802
  2.996   1.2463
  2.994   1.3390
  2.992   1.3905
  2.991   1.3493
  2.989   1.2978
  2.987   1.3184
  2.986   1.2875
  2.984   1.2875
  2.982   1.2051
  2.980   1.1742
  2.979   1.2154
  2.977   1.2669
  2.975   1.1948
  2.974   1.1124
  2.972   1.1124
  2.970   1.1330
  2.968   1.0300
  2.967   1.0197
  2.965   1.0506
  2.963   1.1227
  2.962   1.0300
  2.960   0.9991
  2.958   0.9785
  2.957   0.9373
  2.955   0.9373
  2.953   1.0094
  2.952   1.0094
  2.950   0.9579
  2.948   0.9476
  2.947   1.0094
  2.945   1.0918
  2.943   1.1536
  2.942   1.1021
  2.940   1.0918
  2.938   1.0300
  2.937   1.0094
  2.935   1.0815
  2.933   1.1433
  2.932   1.0300
  2.930   1.0300
  2.928   1.0197
  2.927   0.9888
  2.925   0.9476
  2.923   1.0300
  2.922   1.0300
  2.920   1.0094
  2.918   1.0094
  2.917   1.0712
  2.915   0.9991
  2.913   0.8549
  2.912   0.7931
  2.910   0.9064
  2.909   0.8755
  2.907   0.8446
  2.905   0.9167
  2.904   0.9888
  2.902   0.9579
  2.900   0.9373
  2.899   0.8858
  2.897   0.9167
  2.896   0.8549
  2.894   0.8240
  2.892   0.8549
  2.891   0.8343
  2.889   0.8961
  2.887   0.8961
  2.886   0.8240
  2.884   0.8137
  2.883   0.8240
  2.881   0.9064
  2.879   0.8240
  2.878   0.7931
  2.876   0.7622
  2.875   0.7828
  2.873   0.7931
  2.871   0.7725
  2.870   0.7210
  2.868   0.8034
  2.867   0.8858
  2.865   0.8755
  2.864   0.8343
  2.862   0.8240
  2.860   0.7725
  2.859   0.7828
  2.857   0.8240
  2.856   0.8343
  2.854   0.8137
  2.853   0.8652
  2.851   0.8755
  2.849   0.8343
  2.848   0.8240
  2.846   0.8549
  2.845   0.8240
  2.843   0.8240
  2.842   0.8240
  2.840   0.8240
  2.838   0.7931
  2.837   0.7004
  2.835   0.7313
  2.834   0.8137
  2.832   0.7519
  2.831   0.7622
  2.829   0.7210
  2.828   0.8137
  2.826   0.9579
  2.825   0.8755
  2.823   0.7725
  2.821   0.7931
  2.820   0.7622
  2.818   0.7519
  2.817   0.7828
  2.815   0.8549
  2.814   0.8446
  2.812   0.7828
  2.811   0.7313
  2.809   0.8858
  2.808   1.0094
  2.806   0.9373
  2.805   0.8652
  2.803   0.9270
  2.802   0.9476
  2.800   0.9991
  2.799   0.9373
  2.797   0.9064
  2.796   0.8755
  2.794   0.9167
  2.793   0.9373
  2.791   0.8858
  2.790   0.7416
  2.788   0.8858
  2.787   1.0197
  2.785   0.9785
  2.784   0.9682
  2.782   1.0815
  2.781   1.0300
  2.779   1.0403
  2.778   1.0712
  2.776   1.0506
  2.775   1.0403
  2.773   1.0403
  2.772   1.0506
  2.770   1.0815
  2.769   1.0918
  2.767   1.1124
  2.766   1.1536
  2.764   1.3081
  2.763   1.2772
  2.761   1.2566
  2.760   1.2463
  2.758   1.3596
  2.757   1.3596
  2.756   1.2669
  2.754   1.2154
  2.753   1.3493
  2.751   1.4214
  2.750   1.4935
  2.748   1.5450
  2.747   1.5347
  2.745   1.5450
  2.744   1.6377
  2.742   1.6068
  2.741   1.5965
  2.740   1.5553
  2.738   1.6377
  2.737   1.7201
  2.735   1.7304
  2.734   1.7201
  2.732   1.8540
  2.731   1.8952
  2.729   1.9158
  2.728   1.8231
  2.727   1.8952
  2.725   2.0188
  2.724   2.0497
  2.722   2.0600
  2.721   2.0600
  2.719   2.0703
  2.718   2.1424
  2.717   2.2351
  2.715   2.2866
  2.714   2.2042
  2.712   2.2042
  2.711   2.3690
  2.709   2.4514
  2.708   2.2866
  2.707   2.2866
  2.705   2.3587
  2.704   2.4205
  2.702   2.4205
  2.701   2.4411
  2.700   2.5029
  2.698   2.6059
  2.697   2.7604
  2.695   2.8325
  2.694   2.7295
  2.693   2.7501
  2.691   2.6883
  2.690   2.7295
  2.688   2.8428
  2.687   2.8840
  2.686   2.9046
  2.684   2.9973
  2.683   2.9355
  2.681   2.8943
  2.680   2.9561
  2.679   3.0179
  2.677   2.9973
  2.676   3.1003
  2.675   3.1209
  2.673   3.1209
  2.672   3.1518
  2.670   3.2445
  2.669   3.2548
  2.668   3.3372
  2.666   3.3887
  2.665   3.4608
  2.664   3.4196
  2.662   3.4608
  2.661   3.4814
  2.659   3.4814
  2.658   3.4711
  2.657   3.5947
  2.655   3.5741
  2.654   3.5226
  2.653   3.5947
  2.651   3.7492
  2.650   3.7080
  2.649   3.6462
  2.647   3.7080
  2.646   3.8110
  2.645   3.7595
  2.643   3.8007
  2.642   3.7080
  2.640   3.6050
  2.639   3.5947
  2.638   3.7904
  2.636   3.8110
  2.635   3.8316
  2.634   3.9037
  2.632   3.9964
  2.631   3.9037
  2.630   3.8831
  2.628   3.9346
  2.627   4.0582
  2.626   4.1097
  2.624   4.1200
  2.623   4.0788
  2.622   4.1097
  2.620   4.1200
  2.619   4.0685
  2.618   3.9655
  2.617   4.0685
  2.615   4.0891
  2.614   4.1303
  2.613   4.0891
  2.611   3.9861
  2.610   4.0479
  2.609   4.2539
  2.607   4.3878
  2.606   4.2436
  2.605   4.0376
  2.603   4.2436
  2.602   4.3569
  2.601   4.2127
  2.599   4.0479
  2.598   4.1406
  2.597   4.2024
  2.596   4.2642
  2.594   4.2642
  2.593   4.2127
  2.592   4.1612
  2.590   4.1509
  2.589   4.1921
  2.588   4.2127
  2.586   4.2848
  2.585   4.3466
  2.584   4.2127
  2.583   4.1509
  2.581   4.0685
  2.580   4.0582
  2.579   4.1612
  2.577   4.2848
  2.576   4.2642
  2.575   4.2642
  2.574   4.2230
  2.572   4.2230
  2.571   4.1921
  2.570   4.2024
  2.569   4.0582
  2.567   4.0685
  2.566   4.1509
  2.565   4.2642
  2.563   4.3260
  2.562   4.2230
  2.561   4.2333
  2.560   4.3466
  2.558   4.3878
  2.557   4.4084
  2.556   4.4599
  2.555   4.4084
  2.553   4.2642
  2.552   4.3466
  2.551   4.3260
  2.550   4.2436
  2.548   4.3157
  2.547   4.4290
  2.546   4.5011
  2.545   4.5526
  2.543   4.4702
  2.542   4.5732
  2.541   4.5217
  2.540   4.3981
  2.538   4.3569
  2.537   4.5011
  2.536   4.4805
  2.535   4.5835
  2.533   4.6968
  2.532   4.6659
  2.531   4.6556
  2.530   4.7895
  2.528   4.8410
  2.527   4.7174
  2.526   4.6865
  2.525   4.7895
  2.524   4.7998
  2.522   4.7895
  2.521   4.6659
  2.520   4.6144
  2.519   4.7483
  2.517   4.7483
  2.516   4.6556
  2.515   4.7483
  2.514   4.6968
  2.513   4.6556
  2.511   4.6865
  2.510   4.7998
  2.509   4.7792
  2.508   4.7689
  2.506   4.8204
  2.505   4.7998
  2.504   4.8513
  2.503   4.8410
  2.502   4.7483
  2.500   4.8204
  2.500   4.8204
  2.498   5.1473
  2.496   5.4197
  2.494   5.0069
  2.492   4.9257
  2.490   5.3724
  2.488   4.7811
  2.486   5.2132
  2.484   5.1695
  2.482   5.1659
  2.480   5.0985
  2.478   5.0909
  2.476   5.1764
  2.474   5.4232
  2.472   5.1248
  2.470   5.0638
  2.468   5.2458
  2.466   5.2737
  2.464   5.2628
  2.462   5.4467
  2.460   5.3160
  2.458   5.4741
  2.456   5.6001
  2.454   5.5245
  2.452   5.5990
  2.450   5.5667
  2.448   5.6205
  2.446   5.6716
  2.444   5.7895
  2.442   5.7630
  2.440   5.8494
  2.438   5.8250
  2.436   6.0582
  2.434   5.7542
  2.432   5.9394
  2.430   6.0281
  2.428   6.0086
  2.426   6.1046
  2.424   6.0167
  2.422   6.1866
  2.420   6.1657
  2.418   6.1970
  2.416   6.1966
  2.414   6.2520
  2.412   6.3616
  2.410   6.3683
  2.408   6.5307
  2.406   6.4125
  2.404   6.5147
  2.402   6.5481
  2.400   6.5914
  2.398   6.6416
  2.396   6.7608
  2.394   6.7221
  2.392   6.7980
  2.390   6.7022
  2.388   6.9283
  2.386   6.8776
  2.384   6.8807
  2.382   7.0023
  2.380   7.0639
  2.378   7.0536
  2.376   7.1827
  2.374   7.2571
  2.372   7.2277
  2.370   7.2460
  2.368   7.4214
  2.366   7.4150
  2.364   7.5352
  2.362   7.5957
  2.360   7.6253
  2.358   7.6796
  2.356   7.8271
  2.354   7.8696
  2.352   7.8641
  2.350   8.0095
  2.348   8.0184
  2.346   8.0449
  2.344   8.1414
  2.342   8.1035
  2.340   8.2215
  2.338   8.2495
  2.336   8.2879
  2.334   8.4094
  2.332   8.5054
  2.330   8.4451
  2.328   8.6146
  2.326   8.6027
  2.324   8.7198
  2.322   8.7461
  2.320   8.7857
  2.318   8.8997
  2.316   8.9427
  2.314   9.0196
  2.312   8.9632
  2.310   9.0310
  2.308   9.0634
  2.306   9.1995
  2.304   9.2282
  2.302   9.2537
  2.300   9.2834
  2.298   9.1757
  2.296   9.2625
  2.294   9.3442
  2.292   9.4080
  2.290   9.4199
  2.288   9.4142
  2.286   9.4283
  2.284   9.4689
  2.282   9.5284
  2.280   9.4685
  2.278   9.4164
  2.276   9.3664
  2.274   9.4426
  2.272   9.4417
  2.270   9.4624
  2.268   9.4122
  2.266   9.4433
  2.264   9.4336
  2.262   9.3417
  2.260   9.3648
  2.258   9.3542
  2.256   9.3404
  2.254   9.3321
  2.252   9.2208
  2.250   9.2496
  2.248   9.2564
  2.246   9.2023
  2.244   9.2301
  2.242   9.1675
  2.240   9.1314
  2.238   9.1160
  2.236   9.1174
  2.234   9.0833
  2.232   9.1318
  2.230   9.1428
  2.228   9.0306
  2.226   9.0148
  2.224   9.0421
  2.222   9.0800
  2.220   9.1149
  2.218   9.0933
  2.216   9.0266
  2.214   8.9926
  2.212   8.9919
  2.210   8.8853
  2.208   8.8918
  2.206   8.9603
  2.204   8.9308
  2.202   8.9022
  2.200   8.8297
  2.198   8.8355
  2.196   8.8525
  2.194   8.8281
  2.192   8.8245
  2.190   8.8064
  2.188   8.8238
  2.186   8.8438
  2.184   8.7914
  2.182   8.8032
  2.180   8.8194
  2.178   8.7634
  2.176   8.7316
  2.174   8.7305
  2.172   8.7341
  2.170   8.6960
  2.168   8.6895
  2.166   8.7187
  2.164   8.7567
  2.162   8.8087
  2.160   8.7135
  2.158   8.6835
  2.156   8.8070
  2.154   8.8427
  2.152   8.9029
  2.150   8.8783
  2.148   8.9098
  2.146   8.9840
  2.144   8.9931
  2.142   9.0290
  2.140   9.0847
  2.138   9.0819
  2.136   8.9882
  2.134   9.0462
  2.132   9.1137
  2.130   9.1421
  2.128   9.1335
  2.126   9.1346
  2.124   9.1706
  2.122   9.1836
  2.120   9.1573
  2.118   9.2266
  2.116   9.2332
  2.114   9.2215
  2.112   9.2699
  2.110   9.3562
  2.108   9.3504
  2.106   9.3187
  2.104   9.3411
  2.102   9.3028
  2.100   9.4117
  2.098   9.4194
  2.096   9.3634
  2.094   9.4023
  2.092   9.3979
  2.090   9.4113
  2.088   9.4424
  2.086   9.4593
  2.084   9.3507
  2.082   9.4053
  2.080   9.3808
  2.078   9.4314
  2.076   9.4140
  2.074   9.3339
  2.072   9.3682
  2.070   9.4668
  2.068   9.3455
  2.066   9.4077
  2.064   9.3752
  2.062   9.4139
  2.060   9.4084
  2.058   9.3926
  2.056   9.3958
  2.054   9.4191
  2.052   9.3613
  2.050   9.3613
  2.048   9.3047
  2.046   9.3715
  2.044   9.3225
  2.042   9.2444
  2.040   9.2551
  2.038   9.1691
  2.036   9.1956
  2.034   9.0978
  2.032   9.0954
  2.030   9.0738
  2.028   9.0089
  2.026   8.9362
  2.024   8.8623
  2.022   8.8781
  2.020   8.8716
  2.018   8.8147
  2.016   8.7337
  2.014   8.6863
  2.012   8.6262
  2.010   8.6109
  2.008   8.5845
  2.006   8.5002
  2.004   8.4831
  2.002   8.3906
  2.000   8.3175
  1.998   8.2937
  1.996   8.1767
  1.994   8.1587
  1.992   8.1783
  1.990   8.0335
  1.988   8.0152
  1.986   7.9635
  1.984   7.8667
  1.982   7.8234
  1.980   7.7745
  1.978   7.7866
  1.976   7.7504
  1.974   7.7514
  1.972   7.8025
  1.970   7.6667
  1.968   7.8153
  1.966   7.7771
  1.964   7.9325
  1.962   8.0779
  1.960   8.1032
  1.958   8.1870
  1.956   8.3423
  1.954   8.4826
  1.952   8.5568
  1.950   8.6879
  1.948   8.6114
  1.946   8.5818
  1.944   8.8250
  1.942   8.7387
  1.940   8.7463
  1.938   8.6547
  1.936   8.7085
  1.934   8.7920
  1.932   8.7261
  1.930   8.7039
  1.928   8.8953
  1.926   9.0274
  1.924   9.1578
  1.922   9.4281
  1.920   9.5847
  1.918   9.9652
  1.916  10.2235
  1.914  10.5471
  1.912  10.7995
  1.910  11.0243
  1.908  11.5025
  1.906  11.7881
  1.904  11.9577
  1.902  12.3760
  1.900  12.5820
  1.898  12.7752
  1.896  12.9360
  1.894  13.2248
  1.892  13.5406
  1.890  13.6032
  1.888  13.8749
  1.886  13.9523
  1.884  14.1680
  1.882  14.4190
  1.880  14.5723
  1.878  14.6381
  1.876  14.8473
  1.874  14.9411
  1.872  15.1107
  1.870  15.0852
  1.868  15.3358
  1.866  15.1809
  1.864  15.4541
  1.862  15.4177
  1.860  15.4651
  1.858  15.5585
  1.856  15.6331
  1.854  15.6031
  1.852  15.7649
  1.850  15.7311
  1.848  15.8654
  1.846  15.8484
  1.844  15.9674
  1.842  16.0604
  1.840  15.9893
  1.838  16.0314
  1.836  16.1444
  1.834  16.0815
  1.832  16.0506
  1.830  16.1947
  1.828  16.2401
  1.826  16.3510
  1.824  16.2343
  1.822  16.3788
  1.820  16.5062
  1.818  16.3039
  1.816  16.5032
  1.814  16.4112
  1.812  16.5837
  1.810  16.6987
  1.808  16.3598
  1.806  16.7230
  1.804  16.8701
  1.802  16.7365
  1.800  16.9264
  1.798  16.7955
  1.796  16.8935
  1.794  16.9532
  1.792  16.9816
  1.790  16.9614
  1.788  17.1055
  1.786  17.0625
  1.784  16.9901
  1.782  17.2589
  1.780  17.1829
  1.778  17.2365
  1.776  17.0702
  1.774  17.1802
  1.772  17.1513
  1.770  17.1257
  1.768  17.1876
  1.766  17.1905
  1.764  17.2096
  1.762  17.2100
  1.760  17.0881
  1.758  17.1278
  1.756  17.0373
  1.754  16.9565
  1.752  17.0340
  1.750  16.9062
  1.748  16.8738
  1.746  16.8108
  1.744  16.9291
  1.742  16.8115
  1.740  16.8177
  1.738  16.8319
  1.736  16.7829
  1.734  16.5570
  1.732  16.5731
  1.730  16.6615
  1.728  16.5941
  1.726  16.5174
  1.724  16.5556
  1.722  16.4649
  1.720  16.3491
  1.718  16.3248
  1.716  16.2832
  1.714  16.2976
  1.712  16.2219
  1.710  16.1483
  1.708  16.1302
  1.706  16.1658
  1.704  16.1623
  1.702  15.9242
  1.700  16.1033
  1.698  16.1046
  1.696  16.0563
  1.694  15.9462
  1.692  16.0550
  1.690  16.0098
  1.688  15.9780
  1.686  16.0510
  1.684  16.0810
  1.682  15.9805
  1.680  16.0415
  1.678  16.0529
  1.676  15.9697
  1.674  16.1322
  1.672  16.1720
  1.670  16.1498
  1.668  16.1130
  1.666  16.1585
  1.664  16.2520
  1.662  16.1791
  1.660  16.2897
  1.658  16.3438
  1.656  16.3605
  1.654  16.3959
  1.652  16.3721
  1.650  16.4637
  1.648  16.6008
  1.646  16.6331
  1.644  16.7841
  1.642  16.8294
  1.640  16.9191
  1.638  17.0574
  1.636  17.0742
  1.634  17.0852
  1.632  17.1451
  1.630  17.1949
  1.628  17.2184
  1.626  17.3544
  1.624  17.4677
  1.622  17.5094
  1.620  17.4400
  1.618  17.4984
  1.616  17.6397
  1.614  17.6157
  1.612  17.6320
  1.610  17.6966
  1.608  17.6429
  1.606  17.6934
  1.604  17.7058
  1.602  17.6696
  1.600  17.6275
  1.598  17.6352
  1.596  17.6732
  1.594  17.5778
  1.592  17.5495
  1.590  17.5254
  1.588  17.5721
  1.586  17.6256
  1.584  17.5313
  1.582  17.5616
  1.580  17.6091
  1.578  17.6208
  1.576  17.5830
  1.574  17.6526
  1.572  17.6591
  1.570  17.6888
  1.568  17.8021
  1.566  17.7936
  1.564  17.8001
  1.562  17.8069
  1.560  17.8835
  1.558  17.8871
  1.556  17.8924
  1.554  17.9985
  1.552  18.0474
  1.550  18.0172
  1.548  18.0726
  1.546  18.0987
  1.544  18.1771
  1.542  18.1970
  1.540  18.2066
  1.538  18.2254
  1.536  18.2065
  1.534  18.0751
  1.532  18.0949
  1.530  18.2012
  1.528  18.1454
  1.526  18.1157
  1.524  18.0656
  1.522  18.1101
  1.520  18.0730
  1.518  17.9416
  1.516  17.9023
  1.514  17.8179
  1.512  17.7115
  1.510  17.6389
  1.508  17.5895
  1.506  17.4722
  1.504  17.3368
  1.502  17.2991
  1.500  17.2213
  1.498  17.0871
  1.496  16.9957
  1.494  16.9874
  1.492  16.8622
  1.490  16.7117
  1.488  16.5349
  1.486  16.4363
  1.484  16.3677
  1.482  16.4226
  1.480  16.2427
  1.478  16.1330
  1.476  16.1612
  1.474  16.1042
  1.472  16.0756
  1.470  16.1988
  1.468  16.4548
  1.466  16.6615
  1.464  16.8685
  1.462  17.2582
  1.460  17.5781
  1.458  17.8317
  1.456  18.2717
  1.454  18.5585
  1.452  18.8502
  1.450  19.1038
  1.448  19.4524
  1.446  19.7977
  1.444  20.0452
  1.442  20.3388
  1.440  20.6203
  1.438  20.9071
  1.436  21.2666
  1.434  21.7007
  1.432  22.0912
  1.430  22.5364
  1.428  23.0725
  1.426  23.6828
  1.424  24.2977
  1.422  24.8008
  1.420  25.4365
  1.418  26.0348
  1.416  26.6441
  1.414  27.2416
  1.412  27.8647
  1.410  28.3406
  1.408  28.7759
  1.406  29.1887
  1.404  29.5774
  1.402  29.9921
  1.400  30.3525
  1.398  30.6189
  1.396  30.8143
  1.394  31.1142
  1.392  31.3649
  1.390  31.6695
  1.388  31.7680
  1.386  31.8685
  1.384  32.1616
  1.382  32.3568
  1.380  32.5159
  1.378  32.6692
  1.376  32.8656
  1.374  32.9133
  1.372  33.0174
  1.370  33.2997
  1.368  33.3978
  1.366  33.5275
  1.364  33.6893
  1.362  33.6758
  1.360  33.9319
  1.358  34.0060
  1.356  34.1323
  1.354  34.2997
  1.352  34.4291
  1.350  34.6560
  1.348  34.8192
  1.346  34.9439
  1.344  35.1273
  1.342  35.1223
  1.340  35.2913
  1.338  35.4545
  1.336  35.5041
  1.334  35.6023
  1.332  35.7134
  1.330  35.8109
  1.328  35.8673
  1.326  35.9655
  1.324  36.0416
  1.322  36.0745
  1.320  36.0621
  1.318  36.2135
  1.316  36.2113
  1.314  36.3869
  1.312  36.4551
  1.310  36.5520
  1.308  36.5146
  1.306  36.7002
  1.304  36.6864
  1.302  36.8822
  1.300  36.8041
  1.298  36.8525
  1.296  36.9037
  1.294  36.9333
  1.292  37.0466
  1.290  37.0493
  1.288  37.0182
  1.286  37.0677
  1.284  37.0674
  1.282  37.1916
  1.280  37.1825
  1.278  37.0692
  1.276  37.1162
  1.274  37.1911
  1.272  37.2114
  1.270  37.2527
  1.268  37.3174
  1.266  37.4299
  1.264  37.4472
  1.262  37.3779
  1.260  37.5624
  1.258  37.4653
  1.256  37.7354
  1.254  37.6927
  1.252  37.5541
  1.250  37.8478
  1.248  37.5833
  1.246  37.8259
  1.244  37.7247
  1.242  37.8699
  1.240  37.9447
  1.238  37.7597
  1.236  37.7716
  1.234  37.9669
  1.232  37.9876
  1.230  37.8870
  1.228  37.7943
  1.226  37.8464
  1.224  37.9058
  1.222  37.9825
  1.220  37.8517
  1.218  37.8628
  1.216  37.8006
  1.214  37.7501
  1.212  37.8594
  1.210  37.9152
  1.208  37.8091
  1.206  37.8835
  1.204  37.7810
  1.202  37.8171
  1.200  37.8445
  1.198  37.8867
  1.196  37.9799
  1.194  37.9766
  1.192  37.9497
  1.190  38.0441
  1.188  38.0446
  1.186  38.0771
  1.184  38.1614
  1.182  38.2258
  1.180  38.2455
  1.178  38.3489
  1.176  38.2149
  1.174  38.2794
  1.172  38.2983
  1.170  38.3222
  1.168  38.3379
  1.166  38.5810
  1.164  38.4361
  1.162  38.5405
  1.160  38.6386
  1.158  38.6390
  1.156  38.8214
  1.154  38.8699
  1.152  38.8207
  1.150  38.8857
  1.148  38.9120
  1.146  38.9410
  1.144  39.0300
  1.142  39.0115
  1.140  38.9730
  1.138  39.0550
  1.136  38.9897
  1.134  39.1188
  1.132  39.0990
  1.130  39.0943
  1.128  39.1235
  1.126  39.1294
  1.124  39.0960
  1.122  39.0467
  1.120  39.0886
  1.118  39.1046
  1.116  39.0901
  1.114  39.1760
  1.112  39.1767
  1.110  39.1166
  1.108  39.1803
  1.106  39.1146
  1.104  39.1173
  1.102  39.1645
  1.100  39.0768
  1.098  39.1676
  1.096  39.1222
  1.094  39.1870
  1.092  39.1488
  1.090  38.9661
  1.088  39.0318
  1.086  39.0490
  1.084  38.9926
  1.082  39.0042
  1.080  39.0166
  1.078  38.9674
  1.076  39.0102
  1.074  38.9862
  1.072  38.9508
  1.070  38.9566
  1.068  38.9911
  1.066  38.9205
  1.064  38.9857
  1.062  38.9033
  1.060  38.8909
  1.058  38.8789
  1.056  38.8273
  1.054  38.8667
  1.052  38.8939
  1.050  38.8739
  1.048  38.7542
  1.046  38.7380
  1.044  38.7235
  1.042  38.6245
  1.040  38.6122
  1.038  38.5553
  1.036  38.5156
  1.034  38.5738
  1.032  38.5102
  1.030  38.4947
  1.028  38.4857
  1.026  38.4033
  1.024  38.4056
  1.022  38.3121
  1.020  38.3287
  1.018  38.2763
  1.016  38.2462
  1.014  38.1788
  1.012  38.1887
  1.010  38.1996
  1.008  38.1521
  1.006  38.1750
  1.004  38.1830
  1.002  38.1885
  1.000  38.1619
  0.998  38.1823
  0.996  38.1669
  0.994  38.1246
  0.992  38.2140
  0.990  38.1931
  0.988  38.1755
  0.986  38.2021
  0.984  38.2271
  0.982  38.1530
  0.980  38.1877
  0.978  38.2165
  0.976  38.2212
  0.974  38.1868
  0.972  38.1418
  0.970  38.2157
  0.968  38.3081
  0.966  38.3771
  0.964  38.4148
  0.962  38.4075
  0.960  38.4044
  0.958  38.4363
  0.956  38.4443
  0.954  38.4516
  0.952  38.4545
  0.950  38.3944
  0.948  38.4095
  0.946  38.5298
  0.944  38.5218
  0.942  38.4790
  0.940  38.4619
  0.938  38.3689
  0.936  38.4031
  0.934  38.4384
  0.932  38.4820
  0.930  38.5497
  0.928  38.4692
  0.926  38.5082
  0.924  38.5402
  0.922  38.4484
  0.920  38.4113
  0.918  38.3170
  0.916  38.3307
  0.914  38.4410
  0.912  38.4386
  0.910  38.4071
  0.908  38.3281
  0.906  38.3312
  0.904  38.3146
  0.902  38.3184
  0.900  38.3092
  0.898  38.3088
  0.896  38.3273
  0.894  38.2986
  0.892  38.4376
  0.890  38.3035
  0.888  38.4284
  0.886  38.4818
  0.884  38.4014
  0.882  38.5486
  0.880  38.4299
  0.878  38.3508
  0.876  38.2096
  0.874  38.3086
  0.872  38.3701
  0.870  38.3788
  0.868  38.0675
  0.866  38.0995
  0.864  38.3186
  0.862  38.3593
  0.860  38.3369
  0.858  38.2782
  0.856  38.2386
  0.854  38.2256
  0.852  38.2143
  0.850  38.2553
  0.848  38.2372
  0.846  38.2593
  0.844  38.2374
  0.842  38.2127
  0.840  38.2026
  0.838  38.2024
  0.836  38.2255
  0.834  38.2043
  0.832  38.2315
  0.830  38.2533
  0.828  38.2490
  0.826  38.2164
  0.824  38.2099
  0.822  38.2180
  0.820  38.2017
  0.818  38.2310
  0.816  38.2338
  0.814  38.2039
  0.812  38.1741
  0.810  38.1863
  0.808  38.2140
  0.806  38.2150
  0.804  38.1922
  0.802  38.1917
  0.800  38.1817
  0.798  38.1594
  0.796  38.1656
  0.794  38.1820
  0.792  38.1712
  0.790  38.1610
  0.788  38.1403
  0.786  38.1448
  0.784  38.1688
  0.782  38.1502
  0.780  38.1494
  0.778  38.1457
  0.776  38.1393
  0.774  38.1154
  0.772  38.1086
  0.770  38.1052
  0.768  38.0934
  0.766  38.1030
  0.764  38.1182
  0.762  38.1171
  0.760  38.0947
  0.758  38.1009
  0.756  38.0834
  0.754  38.0748
  0.752  38.0687
  0.750  38.0565
  0.748  38.0406
  0.746  38.0256
  0.744  38.0540
  0.742  38.0487
  0.740  38.0474
  0.738  38.0216
  0.736  38.0189
  0.734  38.0318
  0.732  38.0362
  0.730  37.9946
  0.728  38.0122
  0.726  37.9949
  0.724  38.0180
  0.722  37.9859
  0.720  37.9851
  0.718  37.9808
  0.716  37.9726
  0.714  37.9882
  0.712  37.9900
  0.710  37.9618
  0.708  37.9689
  0.706  37.9486
  0.704  37.9292
  0.702  37.9504
  0.700  37.9463
  0.698  37.9361
  0.696  37.9287
  0.694  37.9265
  0.692  37.9091
  0.690  37.9268
  0.688  37.9161
  0.686  37.9148
  0.684  37.9136
  0.682  37.9208
  0.680  37.9131
  0.678  37.9074
  0.676  37.9169
  0.674  37.8957
  0.672  37.8995
  0.670  37.8986
  0.668  37.8862
  0.666  37.8867
  0.664  37.8906
  0.662  37.8785
  0.660  37.8723
  0.658  37.8766
  0.656  37.8620
  0.654  37.8623
  0.652  37.8444
  0.650  37.8427
  0.648  37.8341
  0.646  37.8253
  0.644  37.8227
  0.642  37.8078
  0.640  37.7956
  0.638  37.7857
  0.636  37.7869
  0.634  37.7856
  0.632  37.7743
  0.630  37.7518
  0.628  37.7497
  0.626  37.7349
  0.624  37.7196
  0.622  37.7288
  0.620  37.6976
  0.618  37.6847
  0.616  37.6851
  0.614  37.6573
  0.612  37.6445
  0.610  37.6329
  0.608  37.6389
  0.606  37.6184
  0.604  37.5854
  0.602  37.5831
  0.600  37.5689
  0.598  37.5374
  0.596  37.5355
  0.594  37.5129
  0.592  37.4947
  0.590  37.4775
  0.588  37.4520
  0.586  37.4362
  0.584  37.4139
  0.582  37.4034
  0.580  37.3811
  0.578  37.3570
  0.576  37.3392
  0.574  37.3165
  0.572  37.2755
  0.570  37.2664
  0.568  37.2534
  0.566  37.2214
  0.564  37.1975
  0.562  37.1608
  0.560  37.1513
  0.558  37.1248
  0.556  37.0932
  0.554  37.0649
  0.552  37.0449
  0.550  37.0091
  0.548  36.9944
  0.546  36.9694
  0.544  36.9318
  0.542  36.9039
  0.540  36.8725
  0.538  36.8504
  0.536  36.8232
  0.534  36.7886
  0.532  36.7640
  0.530  36.7321
  0.528  36.6979
  0.526  36.6766
  0.524  36.6399
  0.522  36.6055
  0.520  36.5642
  0.518  36.5434
  0.516  36.5116
  0.514  36.4783
  0.512  36.4437
  0.510  36.4216
  0.508  36.3772
  0.506  36.3259
  0.504  36.2872
  0.502  36.2573
  0.500  36.2014
  0.498  36.1527
  0.496  36.0961
  0.494  36.0428
  0.492  35.9936
  0.490  35.9325
  0.488  35.8732
  0.486  35.7934
  0.484  35.7282
  0.482  35.6616
  0.480  35.5968
  0.478  35.5421
  0.476  35.4831
  0.474  35.3889
  0.472  35.3309
  0.470  35.2608
  0.468  35.1837
  0.466  35.0943
  0.464  34.9968
  0.462  34.9267
  0.460  34.8387
  0.458  34.7482
  0.456  34.6486
  0.454  34.5409
  0.452  34.4289
  0.450  34.3051
  0.448  34.1787
  0.446  34.0458
  0.444  33.9022
  0.442  33.7539
  0.440  33.6041
  0.438  33.4566
  0.436  33.2831
  0.434  33.1018
  0.432  32.9068
  0.430  32.7003
  0.428  32.4714
  0.426  32.2631
  0.424  32.0263
  0.422  31.7738
  0.420  31.5012
  0.418  31.2183
  0.416  30.9334
  0.414  30.6116
  0.412  30.2710
  0.410  29.9378
  0.408  29.5699
  0.406  29.2098
  0.404  28.8333
  0.402  28.4231
  0.400  28.0036
