Name: Meyerhofferite Ca2B6O6(OH)10 * H2O
Type: Mineral
Class: Borate
Subclass: None
Particle Size: Unsieved coarse powder
Sample No.: NMNH 96075-3
Owner: Smithsonian Institute, National Museum of Nat. History
Wavelength range: 0.40 - 14.05 um
Origin: Inyo County, CA

Description: Meyerhofferite from Inyo County, CA





Measurement: Directional Hemispherical Reflectance
First Column: X
Second Column: Y
X Units: Wavelength (micrometers)
Y Units: Reflectance (percent)
First X Value: 14.05105
Last X Value: 0.40000
Number of X Values: 2756
Additional Information: None

 14.051   2.4617
 14.013   2.4514
 13.975   2.5956
 13.938   2.5647
 13.900   2.6780
 13.863   2.7501
 13.826   2.9252
 13.790   2.9870
 13.753   3.1415
 13.717   3.1312
 13.680   3.1415
 13.644   3.0179
 13.609   2.9149
 13.573   2.7501
 13.538   2.6265
 13.502   2.3999
 13.467   2.3278
 13.432   2.1733
 13.398   2.1836
 13.363   2.1836
 13.329   2.1733
 13.295   2.0085
 13.261   2.0394
 13.227   2.1012
 13.193   2.1630
 13.160   2.1630
 13.126   2.2351
 13.093   2.2660
 13.060   2.4102
 13.027   2.4617
 12.995   2.5750
 12.962   2.5441
 12.930   2.5647
 12.898   2.5750
 12.866   2.7089
 12.834   2.7295
 12.802   2.7604
 12.771   2.7192
 12.739   2.7810
 12.708   2.8016
 12.677   2.9046
 12.646   2.9149
 12.616   3.0076
 12.585   3.0385
 12.554   3.0900
 12.524   3.0179
 12.494   3.0179
 12.464   2.9252
 12.434   2.8016
 12.404   2.6883
 12.375   2.6471
 12.345   2.5235
 12.316   2.5132
 12.287   2.4617
 12.258   2.3793
 12.229   2.2763
 12.200   2.3175
 12.171   2.2557
 12.143   2.1836
 12.115   2.1321
 12.086   2.2042
 12.058   2.2351
 12.030   2.3175
 12.002   2.3278
 11.975   2.4205
 11.947   2.4720
 11.920   2.5647
 11.892   2.5647
 11.865   2.5853
 11.838   2.5750
 11.811   2.6162
 11.784   2.5029
 11.757   2.4720
 11.731   2.4514
 11.704   2.4514
 11.678   2.3690
 11.652   2.3896
 11.626   2.3381
 11.600   2.3381
 11.574   2.3896
 11.548   2.4926
 11.522   2.4411
 11.497   2.4514
 11.471   2.4720
 11.446   2.5750
 11.421   2.6162
 11.396   2.6883
 11.371   2.7192
 11.346   2.7913
 11.321   2.7604
 11.297   2.7810
 11.272   2.7398
 11.248   2.7810
 11.223   2.8016
 11.199   2.8016
 11.175   2.7604
 11.151   2.7913
 11.127   2.8119
 11.103   2.8531
 11.079   2.8531
 11.056   2.8840
 11.032   2.8737
 11.009   2.9149
 10.985   2.8634
 10.962   2.8531
 10.939   2.7604
 10.916   2.7192
 10.893   2.6471
 10.870   2.6265
 10.848   2.5544
 10.825   2.5956
 10.802   2.6162
 10.780   2.6677
 10.758   2.6574
 10.735   2.7707
 10.713   2.8840
 10.691   3.0179
 10.669   3.1312
 10.647   3.2445
 10.625   3.3166
 10.604   3.4196
 10.582   3.4402
 10.560   3.4299
 10.539   3.3784
 10.518   3.3166
 10.496   3.2136
 10.475   3.2136
 10.454   3.2754
 10.433   3.3990
 10.412   3.5020
 10.391   3.6462
 10.370   3.7698
 10.350   3.9758
 10.329   4.1406
 10.309   4.2127
 10.288   4.1612
 10.268   4.1303
 10.247   3.9964
 10.227   3.8419
 10.207   3.6565
 10.187   3.4711
 10.167   3.2033
 10.147   3.0076
 10.127   2.8737
 10.108   2.7707
 10.088   2.6265
 10.068   2.5132
 10.049   2.3587
 10.029   2.3999
 10.010   2.3999
  9.991   2.4205
  9.972   2.5132
  9.952   2.7089
  9.933   2.8428
  9.914   3.0179
  9.895   3.1415
  9.877   3.3372
  9.858   3.5329
  9.839   3.7183
  9.821   3.8316
  9.802   4.0582
  9.783   4.2230
  9.765   4.4187
  9.747   4.5320
  9.728   4.7071
  9.710   4.8616
  9.692   5.0367
  9.674   5.0985
  9.656   5.2221
  9.638   5.2736
  9.620   5.3663
  9.602   5.3251
  9.585   5.2530
  9.567   5.1294
  9.549   5.0367
  9.532   4.8410
  9.514   4.6144
  9.497   4.2951
  9.479   4.0685
  9.462   3.8110
  9.445   3.6256
  9.428   3.4299
  9.411   3.2960
  9.394   3.1724
  9.377   3.1415
  9.360   3.1312
  9.343   3.1415
  9.326   3.1312
  9.309   3.2136
  9.293   3.2857
  9.276   3.4093
  9.259   3.4814
  9.243   3.5947
  9.226   3.7183
  9.210   3.9037
  9.194   4.0479
  9.178   4.2024
  9.161   4.2642
  9.145   4.3981
  9.129   4.4702
  9.113   4.6144
  9.097   4.6350
  9.081   4.7071
  9.065   4.6762
  9.049   4.6762
  9.034   4.6144
  9.018   4.5423
  9.002   4.3981
  8.987   4.3260
  8.971   4.1921
  8.956   4.0479
  8.940   3.8110
  8.925   3.6874
  8.909   3.5432
  8.894   3.4505
  8.879   3.3784
  8.864   3.3990
  8.849   3.4196
  8.834   3.5123
  8.819   3.5329
  8.804   3.5947
  8.789   3.6874
  8.774   3.8110
  8.759   3.8625
  8.744   3.9140
  8.730   3.9346
  8.715   3.9861
  8.700   3.9861
  8.686   4.0067
  8.671   3.8934
  8.657   3.8419
  8.642   3.7904
  8.628   3.7698
  8.614   3.6668
  8.599   3.5638
  8.585   3.4402
  8.571   3.3372
  8.557   3.1930
  8.543   3.0900
  8.529   2.9046
  8.515   2.7810
  8.501   2.6368
  8.487   2.5132
  8.473   2.3690
  8.459   2.2969
  8.445   2.2763
  8.431   2.2557
  8.418   2.1836
  8.404   2.1939
  8.391   2.1836
  8.377   2.1527
  8.363   2.0394
  8.350   2.0188
  8.337   1.9982
  8.323   1.9776
  8.310   1.8952
  8.297   1.8231
  8.283   1.7510
  8.270   1.6583
  8.257   1.5450
  8.244   1.5450
  8.231   1.5038
  8.218   1.5141
  8.205   1.4626
  8.192   1.4111
  8.179   1.3596
  8.166   1.4008
  8.153   1.4008
  8.140   1.4111
  8.128   1.3390
  8.115   1.3390
  8.102   1.2875
  8.090   1.2360
  8.077   1.1845
  8.064   1.1742
  8.052   1.1536
  8.039   1.1536
  8.027   1.1227
  8.015   1.1536
  8.002   1.1433
  7.990   1.1330
  7.978   1.1124
  7.965   1.1330
  7.953   1.0815
  7.941   1.1227
  7.929   1.1330
  7.917   1.1433
  7.905   1.1536
  7.893   1.1845
  7.881   1.1742
  7.869   1.1845
  7.857   1.2051
  7.845   1.2463
  7.833   1.2360
  7.821   1.2875
  7.809   1.3184
  7.798   1.3287
  7.786   1.3081
  7.774   1.3596
  7.763   1.3596
  7.751   1.3596
  7.739   1.4008
  7.728   1.4420
  7.716   1.4523
  7.705   1.4935
  7.694   1.5038
  7.682   1.5141
  7.671   1.5244
  7.659   1.5759
  7.648   1.5965
  7.637   1.6686
  7.626   1.6583
  7.614   1.6171
  7.603   1.5965
  7.592   1.6789
  7.581   1.7510
  7.570   1.7819
  7.559   1.7613
  7.548   1.7716
  7.537   1.7819
  7.526   1.8231
  7.515   1.8231
  7.504   1.8746
  7.493   1.9364
  7.483   1.9570
  7.472   1.9570
  7.461   1.9570
  7.450   1.9776
  7.440   2.0703
  7.429   2.1321
  7.418   2.1939
  7.408   2.3072
  7.397   2.3999
  7.387   2.4308
  7.376   2.5132
  7.366   2.5956
  7.355   2.6677
  7.345   2.6883
  7.334   2.7398
  7.324   2.8119
  7.314   2.9355
  7.303   2.9973
  7.293   3.0076
  7.283   2.8737
  7.273   2.7604
  7.263   2.6883
  7.252   2.6265
  7.242   2.4926
  7.232   2.3793
  7.222   2.2145
  7.212   2.1424
  7.202   2.0703
  7.192   2.0909
  7.182   2.1321
  7.172   2.1836
  7.162   2.2145
  7.152   2.3278
  7.143   2.4411
  7.133   2.6059
  7.123   2.7295
  7.113   2.8325
  7.103   2.9664
  7.094   3.1209
  7.084   3.2239
  7.074   3.3063
  7.065   3.2651
  7.055   3.2033
  7.046   3.0385
  7.036   2.8943
  7.026   2.7192
  7.017   2.4308
  7.007   2.0600
  6.998   1.7510
  6.989   1.4626
  6.979   1.2875
  6.970   1.1433
  6.960   1.0506
  6.951   1.0609
  6.942   1.2463
  6.932   1.4214
  6.923   1.6068
  6.914   1.7613
  6.905   1.9570
  6.896   2.1012
  6.886   2.1733
  6.877   2.1939
  6.868   2.1424
  6.859   1.9982
  6.850   1.9467
  6.841   1.9158
  6.832   1.7613
  6.823   1.5038
  6.814   1.3699
  6.805   1.3081
  6.796   1.1639
  6.787   0.9785
  6.778   0.9579
  6.770   0.9579
  6.761   0.9579
  6.752   0.9373
  6.743   0.8858
  6.734   0.8652
  6.726   0.8858
  6.717   0.8549
  6.708   0.8034
  6.700   0.7931
  6.691   0.8549
  6.682   0.8343
  6.674   0.8652
  6.665   0.9064
  6.657   0.9579
  6.648   0.9373
  6.640   0.9064
  6.631   0.8343
  6.623   0.8755
  6.614   0.9064
  6.606   0.9579
  6.597   0.9682
  6.589   0.9167
  6.581   0.9064
  6.572   0.9373
  6.564   0.9579
  6.556   0.9888
  6.547   1.0094
  6.539   1.0506
  6.531   1.0403
  6.523   1.0506
  6.514   1.0403
  6.506   1.0609
  6.498   1.0506
  6.490   0.9991
  6.482   0.9991
  6.474   1.0506
  6.466   1.0609
  6.458   1.1021
  6.450   1.1021
  6.442   1.1433
  6.434   1.1330
  6.426   1.0712
  6.418   1.0300
  6.410   1.0094
  6.402   1.0506
  6.394   1.1021
  6.386   1.1124
  6.378   1.1639
  6.370   1.1124
  6.363   1.0506
  6.355   1.1021
  6.347   1.1227
  6.339   1.0712
  6.332   1.1330
  6.324   1.1742
  6.316   1.1948
  6.308   1.1948
  6.301   1.2154
  6.293   1.1845
  6.286   1.2051
  6.278   1.2360
  6.270   1.2463
  6.263   1.2257
  6.255   1.2463
  6.248   1.2772
  6.240   1.3287
  6.233   1.3184
  6.225   1.3184
  6.218   1.3184
  6.210   1.3493
  6.203   1.3596
  6.195   1.3493
  6.188   1.3081
  6.181   1.2772
  6.173   1.3081
  6.166   1.2978
  6.159   1.2669
  6.151   1.3081
  6.144   1.3596
  6.137   1.3699
  6.130   1.4008
  6.122   1.4111
  6.115   1.3493
  6.108   1.3287
  6.101   1.4317
  6.094   1.5141
  6.086   1.5038
  6.079   1.4729
  6.072   1.4111
  6.065   1.4008
  6.058   1.4626
  6.051   1.4317
  6.044   1.3390
  6.037   1.5038
  6.030   1.6480
  6.023   1.6686
  6.016   1.6480
  6.009   1.6480
  6.002   1.6892
  5.995   1.6892
  5.988   1.6583
  5.981   1.6480
  5.974   1.6789
  5.967   1.6583
  5.960   1.6583
  5.954   1.7304
  5.947   1.7510
  5.940   1.7201
  5.933   1.6480
  5.926   1.7201
  5.920   1.8025
  5.913   1.8643
  5.906   1.8952
  5.899   1.8643
  5.893   1.7922
  5.886   1.8128
  5.879   1.7716
  5.873   1.7922
  5.866   1.8849
  5.859   1.9364
  5.853   2.0188
  5.846   2.0703
  5.840   2.0909
  5.833   2.1012
  5.827   2.0703
  5.820   2.0497
  5.813   2.0806
  5.807   2.2454
  5.800   2.3072
  5.794   2.3381
  5.788   2.3587
  5.781   2.3484
  5.775   2.3072
  5.768   2.2660
  5.762   2.1939
  5.755   2.3381
  5.749   2.4102
  5.743   2.3793
  5.736   2.4102
  5.730   2.4514
  5.724   2.5132
  5.717   2.5338
  5.711   2.4720
  5.705   2.4720
  5.698   2.5647
  5.692   2.6059
  5.686   2.6368
  5.680   2.7295
  5.674   2.7089
  5.667   2.7192
  5.661   2.7913
  5.655   2.7913
  5.649   2.7810
  5.643   2.7604
  5.637   2.7192
  5.630   2.8634
  5.624   2.9561
  5.618   2.9870
  5.612   2.9870
  5.606   2.9870
  5.600   2.9664
  5.594   2.9870
  5.588   3.0076
  5.582   2.9767
  5.576   2.9252
  5.570   2.9767
  5.564   3.0282
  5.558   3.0591
  5.552   3.0282
  5.546   3.0282
  5.540   3.1003
  5.534   3.1930
  5.528   3.2445
  5.523   3.2651
  5.517   3.3166
  5.511   3.3372
  5.505   3.3578
  5.499   3.3784
  5.493   3.3990
  5.487   3.4402
  5.482   3.4505
  5.476   3.4299
  5.470   3.4917
  5.464   3.5020
  5.459   3.4608
  5.453   3.5741
  5.447   3.6462
  5.441   3.6565
  5.436   3.6771
  5.430   3.7183
  5.424   3.6668
  5.419   3.5844
  5.413   3.6668
  5.407   3.7801
  5.402   3.8110
  5.396   3.8522
  5.390   3.8831
  5.385   3.9140
  5.379   3.9140
  5.374   3.9655
  5.368   4.0170
  5.363   4.0067
  5.357   3.9861
  5.352   3.9449
  5.346   3.9140
  5.341   3.9758
  5.335   4.0273
  5.330   4.0273
  5.324   4.0582
  5.319   4.0891
  5.313   4.0788
  5.308   4.1200
  5.302   4.1715
  5.297   4.1509
  5.291   4.1303
  5.286   4.1509
  5.281   4.1818
  5.275   4.1715
  5.270   4.1921
  5.265   4.2539
  5.259   4.2745
  5.254   4.2539
  5.249   4.2230
  5.243   4.2333
  5.238   4.2436
  5.233   4.2539
  5.227   4.2642
  5.222   4.2745
  5.217   4.2745
  5.212   4.2539
  5.206   4.2745
  5.201   4.3260
  5.196   4.3363
  5.191   4.3569
  5.186   4.3569
  5.180   4.3569
  5.175   4.3672
  5.170   4.3981
  5.165   4.4187
  5.160   4.4290
  5.155   4.4084
  5.150   4.4290
  5.145   4.3878
  5.139   4.3775
  5.134   4.3775
  5.129   4.3672
  5.124   4.3672
  5.119   4.3878
  5.114   4.3878
  5.109   4.3775
  5.104   4.3569
  5.099   4.3672
  5.094   4.3981
  5.089   4.4084
  5.084   4.3878
  5.079   4.3672
  5.074   4.3569
  5.069   4.3775
  5.064   4.3775
  5.059   4.3569
  5.054   4.3569
  5.049   4.3775
  5.044   4.3981
  5.040   4.3878
  5.035   4.3775
  5.030   4.3775
  5.025   4.3363
  5.020   4.3260
  5.015   4.3672
  5.010   4.3878
  5.005   4.3775
  5.001   4.3775
  4.996   4.3775
  4.991   4.3878
  4.986   4.4187
  4.981   4.4393
  4.977   4.4084
  4.972   4.3981
  4.967   4.3981
  4.962   4.3878
  4.958   4.3878
  4.953   4.3981
  4.948   4.4084
  4.943   4.3981
  4.939   4.3878
  4.934   4.3981
  4.929   4.4187
  4.925   4.4187
  4.920   4.4290
  4.915   4.4290
  4.911   4.4290
  4.906   4.4496
  4.901   4.4496
  4.897   4.4187
  4.892   4.4084
  4.888   4.4290
  4.883   4.4084
  4.878   4.4187
  4.874   4.4290
  4.869   4.4187
  4.865   4.3981
  4.860   4.3878
  4.856   4.3775
  4.851   4.3878
  4.846   4.4187
  4.842   4.4084
  4.837   4.3878
  4.833   4.4084
  4.828   4.4187
  4.824   4.4290
  4.819   4.4496
  4.815   4.4599
  4.810   4.4702
  4.806   4.4393
  4.802   4.3981
  4.797   4.4187
  4.793   4.4599
  4.788   4.4599
  4.784   4.4290
  4.779   4.4393
  4.775   4.4393
  4.771   4.4702
  4.766   4.4805
  4.762   4.4702
  4.758   4.4805
  4.753   4.4908
  4.749   4.5217
  4.744   4.5320
  4.740   4.4702
  4.736   4.4599
  4.731   4.4393
  4.727   4.4290
  4.723   4.4496
  4.719   4.4599
  4.714   4.4290
  4.710   4.4084
  4.706   4.3878
  4.701   4.3981
  4.697   4.4084
  4.693   4.4084
  4.689   4.3672
  4.684   4.3672
  4.680   4.3775
  4.676   4.3363
  4.672   4.3054
  4.668   4.3157
  4.663   4.2951
  4.659   4.2951
  4.655   4.3157
  4.651   4.2951
  4.647   4.2230
  4.643   4.1715
  4.638   4.1509
  4.634   4.1509
  4.630   4.1509
  4.626   4.1303
  4.622   4.1200
  4.618   4.1097
  4.614   4.0994
  4.610   4.1200
  4.605   4.1097
  4.601   4.0582
  4.597   4.0067
  4.593   4.0067
  4.589   4.0479
  4.585   4.0170
  4.581   4.0067
  4.577   3.9964
  4.573   3.9861
  4.569   4.0067
  4.565   4.0376
  4.561   4.0788
  4.557   4.0685
  4.553   4.0685
  4.549   4.0788
  4.545   4.0994
  4.541   4.0788
  4.537   4.0685
  4.533   4.1303
  4.529   4.1509
  4.525   4.0994
  4.521   4.0788
  4.517   4.0994
  4.513   4.1406
  4.509   4.1406
  4.505   4.1303
  4.502   4.1612
  4.498   4.1509
  4.494   4.1200
  4.490   4.1406
  4.486   4.2127
  4.482   4.2024
  4.478   4.1818
  4.474   4.1818
  4.470   4.2436
  4.467   4.3054
  4.463   4.2745
  4.459   4.2333
  4.455   4.2539
  4.451   4.2951
  4.447   4.3260
  4.444   4.3466
  4.440   4.3775
  4.436   4.3775
  4.432   4.3775
  4.428   4.4084
  4.425   4.4702
  4.421   4.4805
  4.417   4.4908
  4.413   4.4805
  4.410   4.4908
  4.406   4.5423
  4.402   4.5835
  4.398   4.5835
  4.395   4.5938
  4.391   4.6144
  4.387   4.6453
  4.384   4.6247
  4.380   4.6350
  4.376   4.6762
  4.372   4.7277
  4.369   4.7689
  4.365   4.7998
  4.361   4.7895
  4.358   4.7792
  4.354   4.7998
  4.350   4.8513
  4.347   4.8204
  4.343   4.8307
  4.340   4.8719
  4.336   4.8925
  4.332   4.9028
  4.329   4.9440
  4.325   4.9749
  4.321   5.0058
  4.318   5.0058
  4.314   5.0161
  4.311   5.0367
  4.307   5.1088
  4.304   5.1809
  4.300   5.2427
  4.296   5.2324
  4.293   5.2221
  4.289   5.2736
  4.286   5.3354
  4.282   5.3457
  4.279   5.3354
  4.275   5.3045
  4.272   5.3045
  4.268   5.3251
  4.265   5.3972
  4.261   5.3354
  4.258   5.2530
  4.254   5.2633
  4.251   5.2736
  4.247   5.3251
  4.244   5.3560
  4.240   5.3869
  4.237   5.4178
  4.233   5.4281
  4.230   5.4178
  4.226   5.3663
  4.223   5.3457
  4.219   5.3869
  4.216   5.3354
  4.213   5.2118
  4.209   5.1603
  4.206   5.0985
  4.202   5.0573
  4.199   5.0367
  4.196   5.0367
  4.192   5.0573
  4.189   5.0470
  4.185   4.9955
  4.182   4.9749
  4.179   4.9749
  4.175   5.0161
  4.172   5.0161
  4.169   4.9852
  4.165   4.9646
  4.162   5.0367
  4.159   5.0676
  4.155   5.0264
  4.152   5.0058
  4.149   5.0367
  4.145   5.0573
  4.142   5.0676
  4.139   5.0985
  4.135   5.1191
  4.132   5.1294
  4.129   5.1912
  4.126   5.2015
  4.122   5.2118
  4.119   5.2530
  4.116   5.2736
  4.112   5.2633
  4.109   5.3045
  4.106   5.3869
  4.103   5.3972
  4.099   5.4384
  4.096   5.4590
  4.093   5.5208
  4.090   5.6135
  4.086   5.6650
  4.083   5.6753
  4.080   5.6341
  4.077   5.6959
  4.074   5.7680
  4.070   5.7886
  4.067   5.8298
  4.064   5.9225
  4.061   5.9534
  4.058   5.9740
  4.055   6.0255
  4.051   6.0770
  4.048   6.0770
  4.045   6.0667
  4.042   6.1182
  4.039   6.2212
  4.036   6.2418
  4.032   6.2418
  4.029   6.2212
  4.026   6.2418
  4.023   6.2727
  4.020   6.2933
  4.017   6.2727
  4.014   6.2418
  4.011   6.2212
  4.008   6.2727
  4.004   6.2624
  4.001   6.2933
  3.998   6.2830
  3.995   6.2418
  3.992   6.2315
  3.989   6.2624
  3.986   6.2624
  3.983   6.2521
  3.980   6.2315
  3.977   6.2315
  3.974   6.2624
  3.971   6.3036
  3.968   6.3654
  3.965   6.4066
  3.962   6.4478
  3.959   6.4272
  3.956   6.4272
  3.953   6.5096
  3.950   6.5405
  3.947   6.5920
  3.944   6.6538
  3.941   6.7156
  3.938   6.7053
  3.935   6.6950
  3.932   6.7671
  3.929   6.8392
  3.926   6.8701
  3.923   6.8907
  3.920   6.8804
  3.917   6.9216
  3.914   6.9834
  3.911   7.0040
  3.908   6.9731
  3.905   7.0143
  3.902   7.0040
  3.899   7.0040
  3.896   7.0040
  3.893   7.0040
  3.890   7.0349
  3.887   7.0246
  3.884   7.0246
  3.882   7.0452
  3.879   7.0349
  3.876   7.0452
  3.873   7.0967
  3.870   7.0967
  3.867   7.0658
  3.864   7.0555
  3.861   7.0349
  3.858   7.0452
  3.856   7.0555
  3.853   7.1070
  3.850   7.0967
  3.847   7.1173
  3.844   7.1276
  3.841   7.1070
  3.838   7.0967
  3.836   7.1379
  3.833   7.1688
  3.830   7.1791
  3.827   7.1482
  3.824   7.1482
  3.822   7.1688
  3.819   7.1585
  3.816   7.1791
  3.813   7.1791
  3.810   7.1482
  3.807   7.1585
  3.805   7.1688
  3.802   7.1585
  3.799   7.1482
  3.796   7.1997
  3.794   7.1997
  3.791   7.1688
  3.788   7.1997
  3.785   7.2306
  3.782   7.1791
  3.780   7.1688
  3.777   7.1585
  3.774   7.1173
  3.771   7.1070
  3.769   7.0967
  3.766   7.0555
  3.763   7.0761
  3.761   7.0761
  3.758   7.0555
  3.755   7.0143
  3.752   7.0349
  3.750   7.0040
  3.747   6.9525
  3.744   6.9319
  3.742   6.9422
  3.739   6.9216
  3.736   6.9010
  3.733   6.8701
  3.731   6.7980
  3.728   6.7053
  3.725   6.6847
  3.723   6.6950
  3.720   6.7053
  3.717   6.6744
  3.715   6.6435
  3.712   6.5508
  3.709   6.5302
  3.707   6.4993
  3.704   6.4375
  3.702   6.3860
  3.699   6.3551
  3.696   6.2830
  3.694   6.2933
  3.691   6.2624
  3.688   6.2006
  3.686   6.1079
  3.683   6.0667
  3.680   6.0358
  3.678   5.9637
  3.675   5.8916
  3.673   5.8504
  3.670   5.7989
  3.667   5.7371
  3.665   5.6959
  3.662   5.7062
  3.660   5.6547
  3.657   5.5620
  3.655   5.5002
  3.652   5.4384
  3.649   5.3663
  3.647   5.3148
  3.644   5.2530
  3.642   5.2118
  3.639   5.2015
  3.637   5.1603
  3.634   5.1088
  3.632   5.1191
  3.629   5.0573
  3.626   5.0058
  3.624   4.9543
  3.621   4.9543
  3.619   4.9337
  3.616   4.8925
  3.614   4.7998
  3.611   4.7792
  3.609   4.7174
  3.606   4.6762
  3.604   4.6144
  3.601   4.5835
  3.599   4.5835
  3.596   4.5423
  3.594   4.5114
  3.591   4.4702
  3.589   4.4084
  3.586   4.4187
  3.584   4.4187
  3.581   4.3569
  3.579   4.3363
  3.576   4.3054
  3.574   4.3157
  3.571   4.3363
  3.569   4.2848
  3.567   4.2848
  3.564   4.2745
  3.562   4.2745
  3.559   4.2436
  3.557   4.2230
  3.554   4.1818
  3.552   4.0685
  3.549   3.9758
  3.547   4.0170
  3.545   3.9964
  3.542   3.9758
  3.540   3.9243
  3.537   3.9243
  3.535   3.8831
  3.533   3.8728
  3.530   3.8419
  3.528   3.8213
  3.525   3.8007
  3.523   3.7595
  3.521   3.7389
  3.518   3.7183
  3.516   3.7080
  3.513   3.7080
  3.511   3.6668
  3.509   3.6462
  3.506   3.5844
  3.504   3.5432
  3.502   3.5638
  3.499   3.5947
  3.497   3.5638
  3.494   3.5741
  3.492   3.5535
  3.490   3.5020
  3.487   3.5020
  3.485   3.5432
  3.483   3.5432
  3.480   3.5226
  3.478   3.5329
  3.476   3.5123
  3.473   3.4196
  3.471   3.4505
  3.469   3.4196
  3.466   3.3784
  3.464   3.3784
  3.462   3.4093
  3.460   3.4505
  3.457   3.4814
  3.455   3.4299
  3.453   3.3887
  3.450   3.3578
  3.448   3.3372
  3.446   3.3269
  3.443   3.3578
  3.441   3.3475
  3.439   3.3372
  3.437   3.3166
  3.434   3.2857
  3.432   3.1930
  3.430   3.1827
  3.428   3.1930
  3.425   3.2239
  3.423   3.1827
  3.421   3.1930
  3.418   3.1930
  3.416   3.1518
  3.414   3.1003
  3.412   3.0797
  3.409   3.0488
  3.407   3.0694
  3.405   3.0591
  3.403   3.0797
  3.401   3.0488
  3.398   2.9870
  3.396   2.9561
  3.394   2.9664
  3.392   2.9149
  3.389   2.9252
  3.387   2.8840
  3.385   2.8325
  3.383   2.8325
  3.381   2.8737
  3.378   2.8531
  3.376   2.7913
  3.374   2.7501
  3.372   2.7604
  3.370   2.7398
  3.367   2.6883
  3.365   2.6677
  3.363   2.6986
  3.361   2.6368
  3.359   2.6265
  3.357   2.6368
  3.354   2.6265
  3.352   2.6265
  3.350   2.6368
  3.348   2.6780
  3.346   2.6883
  3.344   2.5647
  3.341   2.5235
  3.339   2.5338
  3.337   2.5750
  3.335   2.5338
  3.333   2.4514
  3.331   2.3999
  3.329   2.4205
  3.326   2.3999
  3.324   2.4102
  3.322   2.4205
  3.320   2.3999
  3.318   2.3690
  3.316   2.3381
  3.314   2.2763
  3.312   2.2660
  3.309   2.2557
  3.307   2.2351
  3.305   2.1733
  3.303   2.1321
  3.301   2.0703
  3.299   2.1321
  3.297   2.1939
  3.295   2.1527
  3.293   2.1012
  3.291   2.0703
  3.288   2.0291
  3.286   2.0291
  3.284   2.0085
  3.282   2.0085
  3.280   1.9467
  3.278   1.9364
  3.276   1.9364
  3.274   1.9364
  3.272   1.9467
  3.270   1.9570
  3.268   1.8643
  3.266   1.8231
  3.264   1.8025
  3.262   1.8231
  3.259   1.8334
  3.257   1.8643
  3.255   1.8231
  3.253   1.7819
  3.251   1.8025
  3.249   1.8334
  3.247   1.8334
  3.245   1.7819
  3.243   1.7613
  3.241   1.8334
  3.239   1.8231
  3.237   1.7922
  3.235   1.7304
  3.233   1.7510
  3.231   1.8128
  3.229   1.8540
  3.227   1.8437
  3.225   1.9055
  3.223   1.8540
  3.221   1.8025
  3.219   1.7716
  3.217   1.7716
  3.215   1.7613
  3.213   1.8025
  3.211   1.8231
  3.209   1.7819
  3.207   1.7407
  3.205   1.8025
  3.203   1.7819
  3.201   1.7922
  3.199   1.8025
  3.197   1.8025
  3.195   1.8025
  3.193   1.8643
  3.191   1.8025
  3.189   1.7922
  3.187   1.7716
  3.185   1.7510
  3.183   1.7098
  3.182   1.7407
  3.180   1.7201
  3.178   1.7510
  3.176   1.8025
  3.174   1.8025
  3.172   1.7716
  3.170   1.7407
  3.168   1.7098
  3.166   1.7613
  3.164   1.7304
  3.162   1.7098
  3.160   1.6789
  3.158   1.6892
  3.156   1.7304
  3.154   1.7510
  3.152   1.7510
  3.151   1.7510
  3.149   1.6995
  3.147   1.6892
  3.145   1.7201
  3.143   1.7510
  3.141   1.7407
  3.139   1.7819
  3.137   1.7304
  3.135   1.6789
  3.133   1.6480
  3.132   1.6480
  3.130   1.6789
  3.128   1.6789
  3.126   1.6377
  3.124   1.6480
  3.122   1.6892
  3.120   1.7304
  3.118   1.6789
  3.117   1.7201
  3.115   1.7201
  3.113   1.6480
  3.111   1.5965
  3.109   1.5965
  3.107   1.6377
  3.105   1.6686
  3.103   1.6068
  3.102   1.5759
  3.100   1.6171
  3.098   1.6377
  3.096   1.6377
  3.094   1.6686
  3.092   1.6171
  3.091   1.5965
  3.089   1.6068
  3.087   1.6068
  3.085   1.5965
  3.083   1.6274
  3.081   1.5965
  3.079   1.5553
  3.078   1.5038
  3.076   1.5759
  3.074   1.6068
  3.072   1.6377
  3.070   1.6274
  3.069   1.5862
  3.067   1.5244
  3.065   1.5862
  3.063   1.5553
  3.061   1.6068
  3.060   1.5862
  3.058   1.5965
  3.056   1.5862
  3.054   1.5553
  3.052   1.5141
  3.051   1.4317
  3.049   1.4317
  3.047   1.5450
  3.045   1.5244
  3.043   1.4729
  3.042   1.4832
  3.040   1.5862
  3.038   1.5862
  3.036   1.5244
  3.034   1.4935
  3.033   1.5244
  3.031   1.4523
  3.029   1.4626
  3.027   1.5038
  3.026   1.4935
  3.024   1.3905
  3.022   1.3596
  3.020   1.3596
  3.019   1.4111
  3.017   1.3905
  3.015   1.4317
  3.013   1.4626
  3.012   1.5141
  3.010   1.4626
  3.008   1.4420
  3.006   1.3596
  3.005   1.3699
  3.003   1.4111
  3.001   1.4523
  2.999   1.4008
  2.998   1.4935
  2.996   1.5450
  2.994   1.5141
  2.992   1.4729
  2.991   1.4729
  2.989   1.4317
  2.987   1.4111
  2.986   1.3699
  2.984   1.3802
  2.982   1.4420
  2.980   1.5553
  2.979   1.5656
  2.977   1.5141
  2.975   1.5141
  2.974   1.5141
  2.972   1.5244
  2.970   1.5656
  2.968   1.4935
  2.967   1.4008
  2.965   1.4111
  2.963   1.5347
  2.962   1.6068
  2.960   1.6171
  2.958   1.5656
  2.957   1.6377
  2.955   1.6274
  2.953   1.4935
  2.952   1.4523
  2.950   1.4832
  2.948   1.3493
  2.947   1.3905
  2.945   1.4420
  2.943   1.4523
  2.942   1.5656
  2.940   1.5553
  2.938   1.5141
  2.937   1.5965
  2.935   1.6789
  2.933   1.5965
  2.932   1.5862
  2.930   1.6892
  2.928   1.6995
  2.927   1.7098
  2.925   1.7201
  2.923   1.8025
  2.922   1.8025
  2.920   1.7510
  2.918   1.6686
  2.917   1.6995
  2.915   1.8128
  2.913   1.8540
  2.912   1.8437
  2.910   1.9879
  2.909   2.0291
  2.907   1.9982
  2.905   2.0291
  2.904   2.0291
  2.902   1.9158
  2.900   1.9055
  2.899   1.8334
  2.897   1.8540
  2.896   1.8643
  2.894   1.7819
  2.892   1.6068
  2.891   1.5656
  2.889   1.5244
  2.887   1.5141
  2.886   1.4729
  2.884   1.3802
  2.883   1.3184
  2.881   1.3287
  2.879   1.3905
  2.878   1.3390
  2.876   1.2566
  2.875   1.2875
  2.873   1.1948
  2.871   1.2463
  2.870   1.3493
  2.868   1.3184
  2.867   1.3081
  2.865   1.2875
  2.864   1.2360
  2.862   1.1536
  2.860   1.0197
  2.859   0.9785
  2.857   0.9785
  2.856   1.1330
  2.854   1.1742
  2.853   1.0918
  2.851   0.9888
  2.849   0.9167
  2.848   0.8858
  2.846   0.9991
  2.845   0.9476
  2.843   0.8961
  2.842   0.9270
  2.840   1.0094
  2.838   0.9888
  2.837   0.9991
  2.835   1.0403
  2.834   1.1639
  2.832   1.2154
  2.831   1.2772
  2.829   1.1845
  2.828   1.1330
  2.826   1.1845
  2.825   1.2566
  2.823   1.2669
  2.821   1.3802
  2.820   1.3493
  2.818   1.3184
  2.817   1.3905
  2.815   1.4729
  2.814   1.4317
  2.812   1.4008
  2.811   1.4111
  2.809   1.4729
  2.808   1.5450
  2.806   1.6583
  2.805   1.6480
  2.803   1.6583
  2.802   1.7304
  2.800   1.8025
  2.799   1.6789
  2.797   1.6995
  2.796   1.8025
  2.794   1.8437
  2.793   1.8231
  2.791   1.9879
  2.790   2.0497
  2.788   1.9364
  2.787   1.8334
  2.785   1.9467
  2.784   2.0188
  2.782   2.0188
  2.781   1.9364
  2.779   1.7613
  2.778   1.6480
  2.776   1.7922
  2.775   2.0394
  2.773   2.1939
  2.772   1.9673
  2.770   1.4626
  2.769   1.2566
  2.767   1.4626
  2.766   1.5965
  2.764   1.6480
  2.763   1.8643
  2.761   2.1733
  2.760   2.2557
  2.758   2.2351
  2.757   2.2763
  2.756   2.3175
  2.754   2.5235
  2.753   2.7398
  2.751   2.8428
  2.750   3.0282
  2.748   3.2342
  2.747   3.3063
  2.745   3.4196
  2.744   3.5535
  2.742   3.4299
  2.741   3.4196
  2.740   3.4814
  2.738   3.8316
  2.737   4.1200
  2.735   4.1818
  2.734   4.3260
  2.732   4.6247
  2.731   4.6968
  2.729   4.7895
  2.728   4.9440
  2.727   5.0882
  2.725   5.1088
  2.724   5.0573
  2.722   5.3251
  2.721   5.4899
  2.719   5.5929
  2.718   6.0358
  2.717   6.3345
  2.715   6.5302
  2.714   6.6641
  2.712   6.6435
  2.711   6.4272
  2.709   6.6538
  2.708   6.9628
  2.707   7.3027
  2.705   7.4778
  2.704   7.6426
  2.702   7.7353
  2.701   7.7353
  2.700   7.8177
  2.698   8.1164
  2.697   8.4151
  2.695   8.5181
  2.694   8.4769
  2.693   8.7756
  2.691   9.2082
  2.690   9.5172
  2.688   9.5996
  2.687   9.5790
  2.686   9.6614
  2.684   9.7953
  2.683   9.8674
  2.681  10.1249
  2.680  10.0734
  2.679   9.8468
  2.677   9.8262
  2.676   9.9086
  2.675  10.1867
  2.673  10.3206
  2.672  10.1764
  2.670   9.8880
  2.669  10.2485
  2.668  10.7429
  2.666  10.6090
  2.665  10.7738
  2.664  11.2991
  2.662  11.8965
  2.661  11.8862
  2.659  11.8553
  2.658  12.0922
  2.657  12.2570
  2.655  12.0304
  2.654  12.1025
  2.653  12.0407
  2.651  12.1025
  2.650  12.3600
  2.649  12.5145
  2.647  12.4321
  2.646  12.3497
  2.645  12.2673
  2.643  12.4218
  2.642  12.4630
  2.640  12.5969
  2.639  12.7823
  2.638  13.1016
  2.636  13.3385
  2.635  13.6681
  2.634  13.9874
  2.632  14.2861
  2.631  14.0698
  2.630  13.9359
  2.628  14.4818
  2.627  14.5642
  2.626  14.4200
  2.624  15.1204
  2.623  15.5118
  2.622  15.3264
  2.620  14.8423
  2.619  14.9762
  2.618  15.1410
  2.617  14.8835
  2.615  15.2234
  2.614  15.6663
  2.613  15.7899
  2.611  16.0062
  2.610  15.9032
  2.609  15.7487
  2.607  15.7075
  2.606  15.5530
  2.605  15.4294
  2.603  15.6045
  2.602  15.7693
  2.601  15.9238
  2.599  16.2019
  2.598  16.3255
  2.597  15.9856
  2.596  15.1925
  2.594  14.4303
  2.593  15.0174
  2.592  15.8826
  2.590  16.2019
  2.589  15.9856
  2.588  15.7281
  2.586  15.8311
  2.585  16.0886
  2.584  15.5942
  2.583  15.6251
  2.581  15.9856
  2.580  16.1401
  2.579  16.5109
  2.577  16.4903
  2.576  16.3667
  2.575  16.5521
  2.574  16.4285
  2.572  16.6757
  2.571  17.1289
  2.570  16.9435
  2.569  16.9126
  2.567  17.4276
  2.566  17.6233
  2.565  17.1804
  2.563  16.7272
  2.562  16.6242
  2.561  16.5830
  2.560  16.9641
  2.558  17.3143
  2.557  17.4482
  2.556  17.5512
  2.555  17.5306
  2.553  17.3143
  2.552  17.0980
  2.551  17.1083
  2.550  17.2422
  2.548  17.2937
  2.547  17.3864
  2.546  17.2834
  2.545  17.1083
  2.543  17.0259
  2.542  17.0362
  2.541  17.1083
  2.540  17.0671
  2.538  16.9538
  2.537  16.7478
  2.536  16.4182
  2.535  16.4388
  2.533  16.5624
  2.532  16.5418
  2.531  16.4903
  2.530  16.4697
  2.528  16.3976
  2.527  16.4285
  2.526  16.4182
  2.525  16.3564
  2.524  16.4285
  2.522  16.4800
  2.521  16.4079
  2.520  16.5315
  2.519  16.6242
  2.517  16.6860
  2.516  16.7169
  2.515  16.7993
  2.514  16.9332
  2.513  17.0877
  2.511  17.1392
  2.510  17.2422
  2.509  17.2834
  2.508  17.2525
  2.506  17.2319
  2.505  17.1907
  2.504  17.2216
  2.503  17.3761
  2.502  17.2731
  2.500  17.2319
  2.500  17.2319
  2.498  17.4335
  2.496  17.1520
  2.494  17.2424
  2.492  17.0422
  2.490  17.0186
  2.488  16.8330
  2.486  16.7975
  2.484  16.6910
  2.482  16.6742
  2.480  16.6751
  2.478  16.7387
  2.476  16.6374
  2.474  16.5417
  2.472  16.5588
  2.470  16.4845
  2.468  16.4217
  2.466  16.0927
  2.464  16.2696
  2.462  15.9221
  2.460  15.8654
  2.458  15.6549
  2.456  15.7141
  2.454  15.2439
  2.452  15.3361
  2.450  15.1044
  2.448  14.9743
  2.446  14.9952
  2.444  14.8234
  2.442  15.0621
  2.440  14.8325
  2.438  15.0840
  2.436  15.3532
  2.434  15.4635
  2.432  15.6284
  2.430  15.6232
  2.428  15.6416
  2.426  15.7485
  2.424  15.6813
  2.422  15.6693
  2.420  15.6511
  2.418  15.7387
  2.416  15.7957
  2.414  15.5934
  2.412  15.7896
  2.410  15.6933
  2.408  15.7276
  2.406  15.8485
  2.404  15.9622
  2.402  16.0195
  2.400  16.2794
  2.398  16.4592
  2.396  16.7657
  2.394  17.2716
  2.392  17.5330
  2.390  17.7755
  2.388  17.9922
  2.386  18.2264
  2.384  18.4307
  2.382  18.6390
  2.380  18.8453
  2.378  18.9417
  2.376  19.0433
  2.374  19.2274
  2.372  19.3291
  2.370  19.4292
  2.368  19.4668
  2.366  19.6606
  2.364  19.6932
  2.362  19.7581
  2.360  19.7768
  2.358  19.7668
  2.356  19.8316
  2.354  19.7236
  2.352  19.8607
  2.350  19.9011
  2.348  19.9017
  2.346  19.9845
  2.344  20.0581
  2.342  20.1261
  2.340  20.2309
  2.338  20.3870
  2.336  20.5281
  2.334  20.8445
  2.332  20.9786
  2.330  21.0750
  2.328  21.4101
  2.326  21.4447
  2.324  21.3769
  2.322  21.4436
  2.320  21.4736
  2.318  21.3671
  2.316  21.3970
  2.314  21.3411
  2.312  21.3335
  2.310  21.4320
  2.308  21.5605
  2.306  21.6048
  2.304  21.7874
  2.302  21.8798
  2.300  21.9497
  2.298  22.0599
  2.296  22.1163
  2.294  22.1400
  2.292  22.1943
  2.290  22.1120
  2.288  22.0517
  2.286  21.9950
  2.284  21.8634
  2.282  21.6196
  2.280  21.4923
  2.278  21.2150
  2.276  20.9969
  2.274  20.6359
  2.272  20.2260
  2.270  19.8963
  2.268  19.3989
  2.266  18.9287
  2.264  18.5306
  2.262  17.8997
  2.260  17.1033
  2.258  16.5426
  2.256  15.9829
  2.254  15.3416
  2.252  14.8674
  2.250  14.5270
  2.248  14.2377
  2.246  14.0474
  2.244  14.0628
  2.242  14.3433
  2.240  14.6033
  2.238  14.9462
  2.236  15.1899
  2.234  15.4744
  2.232  15.8427
  2.230  15.9820
  2.228  16.0011
  2.226  15.9101
  2.224  15.8372
  2.222  15.8438
  2.220  15.8407
  2.218  15.6963
  2.216  15.5765
  2.214  15.4258
  2.212  15.2899
  2.210  15.1460
  2.208  14.7778
  2.206  14.4628
  2.204  14.1946
  2.202  14.0321
  2.200  14.0263
  2.198  14.1422
  2.196  14.2696
  2.194  14.3248
  2.192  14.4674
  2.190  14.7576
  2.188  14.9396
  2.186  15.0932
  2.184  15.4081
  2.182  15.7011
  2.180  16.0005
  2.178  16.1845
  2.176  16.2504
  2.174  16.3593
  2.172  16.4969
  2.170  16.7033
  2.168  16.8602
  2.166  16.8988
  2.164  16.9660
  2.162  17.0320
  2.160  16.9635
  2.158  16.8563
  2.156  16.8191
  2.154  16.7260
  2.152  16.6550
  2.150  16.5900
  2.148  16.4723
  2.146  16.3968
  2.144  16.3552
  2.142  16.3328
  2.140  16.4042
  2.138  16.4927
  2.136  16.7853
  2.134  17.1485
  2.132  17.4508
  2.130  17.8308
  2.128  18.3077
  2.126  18.6407
  2.124  19.0342
  2.122  19.3038
  2.120  19.4952
  2.118  19.8293
  2.116  19.9991
  2.114  20.0631
  2.112  20.2041
  2.110  20.3820
  2.108  20.6132
  2.106  20.9073
  2.104  21.0595
  2.102  21.1309
  2.100  21.4140
  2.098  21.6081
  2.096  21.7625
  2.094  21.8300
  2.092  21.8191
  2.090  21.7748
  2.088  21.7591
  2.086  21.7244
  2.084  21.6414
  2.082  21.5564
  2.080  21.5393
  2.078  21.5980
  2.076  21.6047
  2.074  21.6556
  2.072  21.7374
  2.070  21.9369
  2.068  22.2358
  2.066  22.4419
  2.064  22.5731
  2.062  22.9587
  2.060  23.2302
  2.058  23.4450
  2.056  23.6293
  2.054  23.8383
  2.052  24.1679
  2.050  24.4591
  2.048  24.5846
  2.046  24.7237
  2.044  24.9574
  2.042  25.3321
  2.040  25.4852
  2.038  25.4998
  2.036  25.6747
  2.034  25.8847
  2.032  25.9845
  2.030  26.2305
  2.028  26.2843
  2.026  26.4154
  2.024  26.5725
  2.022  26.5971
  2.020  26.6796
  2.018  26.8794
  2.016  26.8544
  2.014  26.9040
  2.012  27.0158
  2.010  26.9465
  2.008  27.0553
  2.006  27.0062
  2.004  27.0332
  2.002  26.9451
  2.000  27.1094
  1.998  27.0113
  1.996  26.9047
  1.994  26.9652
  1.992  27.0778
  1.990  27.1097
  1.988  27.1803
  1.986  27.0878
  1.984  27.2052
  1.982  27.2369
  1.980  27.2786
  1.978  27.5655
  1.976  27.3977
  1.974  27.6435
  1.972  27.7973
  1.970  27.8409
  1.968  27.9576
  1.966  28.1607
  1.964  28.4075
  1.962  28.4998
  1.960  28.6753
  1.958  28.8257
  1.956  29.0212
  1.954  29.1186
  1.952  29.3445
  1.950  29.5958
  1.948  29.7565
  1.946  29.6277
  1.944  29.9052
  1.942  29.9923
  1.940  30.1354
  1.938  30.1305
  1.936  30.2729
  1.934  30.3561
  1.932  30.4135
  1.930  30.2601
  1.928  30.4533
  1.926  30.4542
  1.924  30.4322
  1.922  30.3808
  1.920  30.3674
  1.918  30.4355
  1.916  30.4081
  1.914  30.4880
  1.912  30.5339
  1.910  30.7810
  1.908  30.8273
  1.906  31.1685
  1.904  31.5116
  1.902  32.0172
  1.900  32.3883
  1.898  32.8871
  1.896  33.3261
  1.894  33.7771
  1.892  34.2379
  1.890  34.5223
  1.888  35.0598
  1.886  35.3430
  1.884  35.6094
  1.882  35.7152
  1.880  36.1660
  1.878  36.1407
  1.876  36.3687
  1.874  36.4854
  1.872  36.5545
  1.870  36.7002
  1.868  36.8866
  1.866  36.9760
  1.864  37.1027
  1.862  36.9979
  1.860  37.0814
  1.858  37.0859
  1.856  37.0040
  1.854  36.9163
  1.852  37.0901
  1.850  37.1228
  1.848  36.9305
  1.846  37.1077
  1.844  37.0118
  1.842  37.0616
  1.840  36.9116
  1.838  37.0466
  1.836  36.8955
  1.834  36.9875
  1.832  36.8603
  1.830  36.8707
  1.828  36.9396
  1.826  36.8554
  1.824  36.7821
  1.822  36.6681
  1.820  36.6881
  1.818  36.5545
  1.816  36.5741
  1.814  36.5009
  1.812  36.4682
  1.810  36.2631
  1.808  36.2853
  1.806  36.3630
  1.804  36.2919
  1.802  36.1499
  1.800  36.3349
  1.798  36.1478
  1.796  36.1169
  1.794  36.3003
  1.792  36.1706
  1.790  36.1592
  1.788  36.1603
  1.786  36.0953
  1.784  36.2845
  1.782  36.2294
  1.780  36.2266
  1.778  36.4746
  1.776  36.4705
  1.774  36.3324
  1.772  36.4185
  1.770  36.4673
  1.768  36.5295
  1.766  36.5447
  1.764  36.5417
  1.762  36.5819
  1.760  36.7309
  1.758  36.8400
  1.756  36.8248
  1.754  36.8909
  1.752  37.0208
  1.750  36.8537
  1.748  37.0200
  1.746  36.9967
  1.744  37.0888
  1.742  37.2674
  1.740  37.2501
  1.738  37.1822
  1.736  37.3805
  1.734  37.4941
  1.732  37.5873
  1.730  37.4297
  1.728  37.6275
  1.726  37.6743
  1.724  37.7840
  1.722  37.9375
  1.720  37.9185
  1.718  37.9635
  1.716  38.0403
  1.714  38.1261
  1.712  38.2860
  1.710  38.4388
  1.708  38.5629
  1.706  38.5116
  1.704  38.6888
  1.702  38.8752
  1.700  38.7551
  1.698  39.0340
  1.696  39.1294
  1.694  39.1683
  1.692  39.3202
  1.690  39.4478
  1.688  39.5501
  1.686  39.6595
  1.684  39.6324
  1.682  39.7629
  1.680  39.8994
  1.678  39.9285
  1.676  40.1423
  1.674  40.3128
  1.672  40.2444
  1.670  40.3450
  1.668  40.3979
  1.666  40.5324
  1.664  40.6414
  1.662  40.5938
  1.660  40.6281
  1.658  40.7755
  1.656  40.9272
  1.654  40.9069
  1.652  40.9010
  1.650  41.0004
  1.648  41.1347
  1.646  41.0952
  1.644  40.9320
  1.642  41.0501
  1.640  41.1216
  1.638  41.1818
  1.636  41.2736
  1.634  41.2154
  1.632  41.1589
  1.630  41.1442
  1.628  41.1688
  1.626  41.1372
  1.624  41.1141
  1.622  41.0335
  1.620  40.8684
  1.618  40.8420
  1.616  40.8970
  1.614  40.6939
  1.612  40.6391
  1.610  40.6661
  1.608  40.5827
  1.606  40.3508
  1.604  40.1818
  1.602  40.0767
  1.600  39.9359
  1.598  39.7814
  1.596  39.5905
  1.594  39.3322
  1.592  39.1804
  1.590  38.9200
  1.588  38.6070
  1.586  38.3183
  1.584  38.0217
  1.582  37.8161
  1.580  37.4475
  1.578  37.0364
  1.576  36.6363
  1.574  36.1890
  1.572  35.7645
  1.570  35.4503
  1.568  35.0894
  1.566  34.7210
  1.564  34.5164
  1.562  34.2343
  1.560  33.9856
  1.558  33.7364
  1.556  33.5383
  1.554  33.3764
  1.552  32.9522
  1.550  32.6985
  1.548  32.4246
  1.546  32.1500
  1.544  31.9553
  1.542  31.6010
  1.540  31.2487
  1.538  31.1713
  1.536  31.0276
  1.534  30.8586
  1.532  30.7707
  1.530  30.8171
  1.528  30.7388
  1.526  30.6191
  1.524  30.5997
  1.522  30.5777
  1.520  30.7259
  1.518  30.7108
  1.516  30.6568
  1.514  30.6739
  1.512  30.6845
  1.510  30.5580
  1.508  30.4346
  1.506  30.3951
  1.504  30.3692
  1.502  30.3370
  1.500  30.2289
  1.498  30.1231
  1.496  30.0988
  1.494  30.0384
  1.492  29.9115
  1.490  29.9065
  1.488  29.8635
  1.486  29.8938
  1.484  29.9825
  1.482  30.0554
  1.480  30.1260
  1.478  30.1429
  1.476  30.1531
  1.474  30.2942
  1.472  30.3632
  1.470  30.4369
  1.468  30.7507
  1.466  31.0495
  1.464  31.2321
  1.462  31.4774
  1.460  31.7036
  1.458  31.5770
  1.456  31.4871
  1.454  31.5629
  1.452  31.7617
  1.450  32.4138
  1.448  32.9655
  1.446  33.7406
  1.444  34.3466
  1.442  34.8170
  1.440  34.8979
  1.438  34.2983
  1.436  33.4663
  1.434  33.0667
  1.432  32.6465
  1.430  31.3888
  1.428  28.3751
  1.426  24.9917
  1.424  23.9536
  1.422  26.2855
  1.420  29.7133
  1.418  32.0602
  1.416  33.2334
  1.414  34.2311
  1.412  35.4697
  1.410  36.9199
  1.408  38.4653
  1.406  39.7492
  1.404  40.9825
  1.402  42.2298
  1.400  43.1811
  1.398  44.0537
  1.396  45.0348
  1.394  45.8253
  1.392  46.4327
  1.390  47.0722
  1.388  48.2704
  1.386  49.3591
  1.384  50.0761
  1.382  50.5019
  1.380  50.8488
  1.378  51.4722
  1.376  51.7356
  1.374  51.9187
  1.372  51.9667
  1.370  52.0257
  1.368  51.8697
  1.366  51.6697
  1.364  51.4333
  1.362  51.1471
  1.360  50.9864
  1.358  51.0133
  1.356  51.1416
  1.354  51.3345
  1.352  51.5448
  1.350  51.8078
  1.348  51.9466
  1.346  52.0781
  1.344  52.4227
  1.342  52.4730
  1.340  52.8306
  1.338  53.0385
  1.336  53.1547
  1.334  53.1456
  1.332  53.2038
  1.330  53.4890
  1.328  53.7326
  1.326  53.8485
  1.324  53.8258
  1.322  53.8379
  1.320  54.0761
  1.318  54.2392
  1.316  54.5875
  1.314  54.9009
  1.312  55.4007
  1.310  55.4292
  1.308  55.5995
  1.306  55.7091
  1.304  55.7695
  1.302  55.9135
  1.300  56.0600
  1.298  56.0483
  1.296  56.1848
  1.294  56.1512
  1.292  56.3428
  1.290  56.3338
  1.288  56.2790
  1.286  56.2917
  1.284  56.0974
  1.282  56.0386
  1.280  55.9633
  1.278  55.9782
  1.276  55.9109
  1.274  56.1675
  1.272  56.1431
  1.270  56.3869
  1.268  56.7971
  1.266  56.8682
  1.264  56.9334
  1.262  57.1580
  1.260  57.2336
  1.258  57.4208
  1.256  57.2667
  1.254  57.7746
  1.252  57.8523
  1.250  58.2580
  1.248  58.2549
  1.246  58.4454
  1.244  58.4658
  1.242  58.6174
  1.240  58.7192
  1.238  58.9570
  1.236  59.0686
  1.234  59.1668
  1.232  59.1642
  1.230  59.5083
  1.228  59.6446
  1.226  59.6767
  1.224  59.9377
  1.222  60.1563
  1.220  60.3025
  1.218  60.3356
  1.216  60.5403
  1.214  60.4884
  1.212  60.7457
  1.210  60.7704
  1.208  60.8866
  1.206  61.0387
  1.204  61.0987
  1.202  61.2424
  1.200  61.3191
  1.198  61.3759
  1.196  61.4252
  1.194  61.5724
  1.192  61.6639
  1.190  61.7276
  1.188  61.7350
  1.186  61.8426
  1.184  61.8687
  1.182  62.0199
  1.180  62.1076
  1.178  62.0836
  1.176  62.2066
  1.174  62.3511
  1.172  62.1959
  1.170  62.3417
  1.168  62.3803
  1.166  62.3044
  1.164  62.3463
  1.162  62.3078
  1.160  62.3074
  1.158  62.4081
  1.156  62.4762
  1.154  62.5133
  1.152  62.5328
  1.150  62.7001
  1.148  62.8561
  1.146  62.7541
  1.144  62.8562
  1.142  62.9654
  1.140  63.0371
  1.138  63.2235
  1.136  63.1722
  1.134  63.1624
  1.132  63.2544
  1.130  63.3724
  1.128  63.2975
  1.126  63.3055
  1.124  63.2246
  1.122  63.3337
  1.120  63.2420
  1.118  63.2218
  1.116  63.1115
  1.114  63.2120
  1.112  63.3005
  1.110  63.2111
  1.108  63.2479
  1.106  63.3239
  1.104  63.2691
  1.102  63.2799
  1.100  63.4447
  1.098  63.5641
  1.096  63.4306
  1.094  63.4375
  1.092  63.4987
  1.090  63.2409
  1.088  63.3903
  1.086  63.4358
  1.084  63.3350
  1.082  63.3738
  1.080  63.3299
  1.078  63.3185
  1.076  63.1834
  1.074  63.3067
  1.072  63.3674
  1.070  63.2460
  1.068  63.1988
  1.066  63.0662
  1.064  63.1794
  1.062  62.9972
  1.060  62.9404
  1.058  62.8955
  1.056  62.8406
  1.054  62.7295
  1.052  62.7386
  1.050  62.5959
  1.048  62.4246
  1.046  62.3513
  1.044  62.2793
  1.042  62.2080
  1.040  62.1852
  1.038  62.1083
  1.036  62.0281
  1.034  61.9612
  1.032  61.7754
  1.030  61.7442
  1.028  61.5817
  1.026  61.4593
  1.024  61.5612
  1.022  61.2693
  1.020  61.1841
  1.018  61.1501
  1.016  61.1095
  1.014  61.1274
  1.012  61.0393
  1.010  61.0016
  1.008  61.1309
  1.006  61.1438
  1.004  61.2171
  1.002  61.3248
  1.000  61.1086
  0.998  61.0379
  0.996  61.1826
  0.994  61.1107
  0.992  61.1772
  0.990  61.2964
  0.988  61.2066
  0.986  61.0964
  0.984  60.9289
  0.982  60.6156
  0.980  59.8556
  0.978  59.2269
  0.976  59.1497
  0.974  59.2333
  0.972  59.4198
  0.970  59.7211
  0.968  60.0043
  0.966  60.4000
  0.964  60.8943
  0.962  61.2889
  0.960  61.6084
  0.958  61.9133
  0.956  62.1244
  0.954  62.2099
  0.952  62.2939
  0.950  62.4459
  0.948  62.5639
  0.946  62.6358
  0.944  62.6836
  0.942  62.7226
  0.940  62.9483
  0.938  63.1105
  0.936  63.0231
  0.934  63.1714
  0.932  63.2799
  0.930  63.1457
  0.928  63.1348
  0.926  63.0504
  0.924  63.0111
  0.922  63.2117
  0.920  63.1592
  0.918  63.0297
  0.916  63.0280
  0.914  63.0772
  0.912  63.0996
  0.910  63.1130
  0.908  63.2773
  0.906  63.1509
  0.904  63.0441
  0.902  62.9531
  0.900  62.8632
  0.898  62.9065
  0.896  63.0963
  0.894  63.1226
  0.892  63.0633
  0.890  63.3392
  0.888  63.1985
  0.886  62.9222
  0.884  63.0852
  0.882  62.8990
  0.880  62.9559
  0.878  63.1006
  0.876  62.9502
  0.874  63.0698
  0.872  62.9675
  0.870  62.6195
  0.868  62.7367
  0.866  62.9007
  0.864  62.6737
  0.862  63.0388
  0.860  62.8975
  0.858  62.4311
  0.856  62.4169
  0.854  62.4780
  0.852  62.4638
  0.850  62.4351
  0.848  62.3566
  0.846  62.3471
  0.844  62.3520
  0.842  62.2789
  0.840  62.1699
  0.838  62.1597
  0.836  62.1701
  0.834  62.1033
  0.832  62.0329
  0.830  62.0904
  0.828  62.0591
  0.826  62.0344
  0.824  61.9785
  0.822  61.9434
  0.820  61.9003
  0.818  61.8974
  0.816  61.8428
  0.814  61.7981
  0.812  61.7447
  0.810  61.7265
  0.808  61.6760
  0.806  61.6057
  0.804  61.5617
  0.802  61.5600
  0.800  61.5023
  0.798  61.4291
  0.796  61.3634
  0.794  61.3269
  0.792  61.2652
  0.790  61.2403
  0.788  61.2082
  0.786  61.1575
  0.784  61.0876
  0.782  61.0831
  0.780  61.0049
  0.778  60.9427
  0.776  60.8916
  0.774  60.8316
  0.772  60.8393
  0.770  60.8314
  0.768  60.7665
  0.766  60.6635
  0.764  60.6114
  0.762  60.5666
  0.760  60.4968
  0.758  60.4666
  0.756  60.4280
  0.754  60.3625
  0.752  60.2728
  0.750  60.2171
  0.748  60.1510
  0.746  60.0608
  0.744  60.0283
  0.742  59.9797
  0.740  59.9357
  0.738  59.9392
  0.736  59.8811
  0.734  59.8238
  0.732  59.7833
  0.730  59.7104
  0.728  59.6447
  0.726  59.6243
  0.724  59.5204
  0.722  59.4992
  0.720  59.4231
  0.718  59.3395
  0.716  59.2701
  0.714  59.2372
  0.712  59.1538
  0.710  59.0885
  0.708  59.0803
  0.706  58.9841
  0.704  58.9211
  0.702  58.8403
  0.700  58.7704
  0.698  58.7124
  0.696  58.6191
  0.694  58.5885
  0.692  58.4863
  0.690  58.4108
  0.688  58.3381
  0.686  58.2696
  0.684  58.1962
  0.682  58.1079
  0.680  58.0433
  0.678  57.9841
  0.676  57.8752
  0.674  57.8060
  0.672  57.7556
  0.670  57.6705
  0.668  57.5819
  0.666  57.5083
  0.664  57.4429
  0.662  57.3581
  0.660  57.2362
  0.658  57.1839
  0.656  57.0687
  0.654  57.0080
  0.652  56.9080
  0.650  56.7997
  0.648  56.7327
  0.646  56.6510
  0.644  56.5904
  0.642  56.4780
  0.640  56.3584
  0.638  56.2936
  0.636  56.2049
  0.634  56.0962
  0.632  55.9934
  0.630  55.9179
  0.628  55.8317
  0.626  55.7423
  0.624  55.6499
  0.622  55.5379
  0.620  55.4413
  0.618  55.3572
  0.616  55.2405
  0.614  55.1369
  0.612  55.0776
  0.610  54.9616
  0.608  54.8575
  0.606  54.7686
  0.604  54.6677
  0.602  54.5674
  0.600  54.4858
  0.598  54.3772
  0.596  54.2610
  0.594  54.1596
  0.592  54.0738
  0.590  53.9630
  0.588  53.8743
  0.586  53.7654
  0.584  53.6712
  0.582  53.5544
  0.580  53.4765
  0.578  53.3510
  0.576  53.2467
  0.574  53.1342
  0.572  53.0608
  0.570  52.9390
  0.568  52.8385
  0.566  52.7131
  0.564  52.6371
  0.562  52.5434
  0.560  52.4135
  0.558  52.3056
  0.556  52.2260
  0.554  52.1390
  0.552  52.0264
  0.550  51.9343
  0.548  51.8364
  0.546  51.7267
  0.544  51.6228
  0.542  51.5208
  0.540  51.4390
  0.538  51.3377
  0.536  51.2434
  0.534  51.1479
  0.532  51.0572
  0.530  50.9679
  0.528  50.8595
  0.526  50.7496
  0.524  50.6577
  0.522  50.5532
  0.520  50.4519
  0.518  50.3421
  0.516  50.2506
  0.514  50.1498
  0.512  50.0625
  0.510  49.9669
  0.508  49.8857
  0.506  49.7972
  0.504  49.7104
  0.502  49.6243
  0.500  49.5298
  0.498  49.4435
  0.496  49.3409
  0.494  49.2354
  0.492  49.1473
  0.490  49.0504
  0.488  48.9416
  0.486  48.8098
  0.484  48.6861
  0.482  48.5784
  0.480  48.4979
  0.478  48.4180
  0.476  48.3259
  0.474  48.2463
  0.472  48.1687
  0.470  48.0874
  0.468  48.0138
  0.466  47.9357
  0.464  47.8710
  0.462  47.8099
  0.460  47.7324
  0.458  47.6644
  0.456  47.5900
  0.454  47.4950
  0.452  47.4134
  0.450  47.3315
  0.448  47.2256
  0.446  47.1191
  0.444  47.0141
  0.442  46.9465
  0.440  46.8708
  0.438  46.8010
  0.436  46.7192
  0.434  46.6315
  0.432  46.5440
  0.430  46.4654
  0.428  46.3999
  0.426  46.3238
  0.424  46.2371
  0.422  46.1537
  0.420  46.0680
  0.418  46.0081
  0.416  45.9366
  0.414  45.8481
  0.412  45.7824
  0.410  45.7142
  0.408  45.6233
  0.406  45.5512
  0.404  45.4564
  0.402  45.3918
  0.400  45.3120
