Name: Ulexite NaCaB5O6(OH)6 * 5H2O
Type: Mineral
Class: Borate
Subclass: None
Particle Size: Unsieved coarse powder
Sample No.: None
Owner: USGS
Wavelength range: 0.40 - 14.05 um
Origin: Boron, California

Description: Ulexite powder from Boron, California





Measurement: Directional Hemispherical Reflectance
First Column: X
Second Column: Y
X Units: Wavelength (micrometers)
Y Units: Reflectance (percent)
First X Value: 14.05105
Last X Value: 0.40000
Number of X Values: 2756
Additional Information: None

 14.051   2.4102
 14.013   2.3999
 13.975   2.5544
 13.938   2.3175
 13.900   2.3484
 13.863   2.1527
 13.826   2.0497
 13.790   1.9364
 13.753   2.0600
 13.717   2.0497
 13.680   2.0188
 13.644   1.8849
 13.609   2.0188
 13.573   2.0394
 13.538   2.1321
 13.502   2.1527
 13.467   2.2969
 13.432   2.2557
 13.398   2.3278
 13.363   2.2969
 13.329   2.3175
 13.295   2.1424
 13.261   2.0085
 13.227   1.7819
 13.193   1.7922
 13.160   1.6892
 13.126   1.7407
 13.093   1.8231
 13.060   1.8540
 13.027   1.7819
 12.995   1.9261
 12.962   1.9467
 12.930   2.0188
 12.898   2.0394
 12.866   2.1424
 12.834   2.1836
 12.802   2.3072
 12.771   2.3072
 12.739   2.3999
 12.708   2.3999
 12.677   2.5544
 12.646   2.6059
 12.616   2.6368
 12.585   2.6059
 12.554   2.7295
 12.524   2.7192
 12.494   2.8222
 12.464   2.8531
 12.434   2.9355
 12.404   2.9355
 12.375   3.0591
 12.345   3.0591
 12.316   3.1415
 12.287   3.1827
 12.258   3.2548
 12.229   3.2239
 12.200   3.2754
 12.171   3.2857
 12.143   3.3784
 12.115   3.3990
 12.086   3.4917
 12.058   3.4402
 12.030   3.4299
 12.002   3.3372
 11.975   3.2754
 11.947   3.1312
 11.920   3.1724
 11.892   3.1415
 11.865   3.2136
 11.838   3.2445
 11.811   3.3578
 11.784   3.4196
 11.757   3.5638
 11.731   3.7389
 11.704   4.0273
 11.678   4.1303
 11.652   4.2951
 11.626   4.3878
 11.600   4.5423
 11.574   4.5114
 11.548   4.5320
 11.522   4.3672
 11.497   4.1818
 11.471   3.8419
 11.446   3.6462
 11.421   3.4505
 11.396   3.2754
 11.371   2.9767
 11.346   2.8428
 11.321   2.6265
 11.297   2.4308
 11.272   2.1836
 11.248   1.9982
 11.223   1.8128
 11.199   1.7716
 11.175   1.6583
 11.151   1.6480
 11.127   1.6377
 11.103   1.7098
 11.079   1.6789
 11.056   1.8025
 11.032   1.8643
 11.009   1.8952
 10.985   1.8746
 10.962   1.9673
 10.939   2.0291
 10.916   2.1321
 10.893   2.1115
 10.870   2.2351
 10.848   2.2557
 10.825   2.3175
 10.802   2.2660
 10.780   2.3072
 10.758   2.2248
 10.735   2.2351
 10.713   2.2557
 10.691   2.3587
 10.669   2.3175
 10.647   2.3381
 10.625   2.4102
 10.604   2.5338
 10.582   2.5235
 10.560   2.5956
 10.539   2.6059
 10.518   2.6471
 10.496   2.6780
 10.475   2.7501
 10.454   2.7089
 10.433   2.7295
 10.412   2.6883
 10.391   2.7295
 10.370   2.7604
 10.350   2.8737
 10.329   2.9355
 10.309   3.1003
 10.288   3.1930
 10.268   3.2960
 10.247   3.2754
 10.227   3.3063
 10.207   3.2342
 10.187   3.2960
 10.167   3.3166
 10.147   3.3166
 10.127   3.2754
 10.108   3.3166
 10.088   3.3784
 10.068   3.5123
 10.049   3.6256
 10.029   3.7389
 10.010   3.7389
  9.991   3.9037
  9.972   4.0376
  9.952   4.2024
  9.933   4.2436
  9.914   4.2333
  9.895   4.1406
  9.877   4.0376
  9.858   3.7286
  9.839   3.5226
  9.821   3.2960
  9.802   3.1003
  9.783   2.7913
  9.765   2.5956
  9.747   2.3896
  9.728   2.3175
  9.710   2.1939
  9.692   2.1836
  9.674   2.1939
  9.656   2.2660
  9.638   2.2660
  9.620   2.3587
  9.602   2.4514
  9.585   2.5750
  9.567   2.6265
  9.549   2.7604
  9.532   2.8531
  9.514   2.9664
  9.497   2.9870
  9.479   3.1106
  9.462   3.1930
  9.445   3.3269
  9.428   3.3372
  9.411   3.3681
  9.394   3.3063
  9.377   3.3063
  9.360   3.2857
  9.343   3.2960
  9.326   3.2033
  9.309   3.2445
  9.293   3.3166
  9.276   3.3784
  9.259   3.2342
  9.243   3.1621
  9.226   3.0488
  9.210   2.9664
  9.194   2.9149
  9.178   2.9561
  9.161   2.9252
  9.145   2.8531
  9.129   2.7810
  9.113   2.8428
  9.097   2.8737
  9.081   2.9458
  9.065   2.9767
  9.049   3.0591
  9.034   2.9973
  9.018   2.9767
  9.002   2.9252
  8.987   2.9252
  8.971   2.9149
  8.956   2.8943
  8.940   2.7810
  8.925   2.7295
  8.909   2.5956
  8.894   2.4926
  8.879   2.3587
  8.864   2.2866
  8.849   2.1115
  8.834   2.0291
  8.819   1.8952
  8.804   1.8334
  8.789   1.6995
  8.774   1.6274
  8.759   1.5450
  8.744   1.5656
  8.730   1.5141
  8.715   1.4935
  8.700   1.3699
  8.686   1.3699
  8.671   1.3184
  8.657   1.2669
  8.642   1.2154
  8.628   1.2566
  8.614   1.2360
  8.599   1.2257
  8.585   1.1536
  8.571   1.1639
  8.557   1.1021
  8.543   1.1845
  8.529   1.2051
  8.515   1.2566
  8.501   1.3184
  8.487   1.3493
  8.473   1.2566
  8.459   1.3184
  8.445   1.4111
  8.431   1.5553
  8.418   1.5965
  8.404   1.6274
  8.391   1.6068
  8.377   1.6274
  8.363   1.6171
  8.350   1.6171
  8.337   1.5862
  8.323   1.6480
  8.310   1.6274
  8.297   1.6068
  8.283   1.5965
  8.270   1.7510
  8.257   1.8540
  8.244   1.8746
  8.231   1.8231
  8.218   1.8849
  8.205   1.9261
  8.192   1.9467
  8.179   1.8437
  8.166   1.6995
  8.153   1.5244
  8.140   1.4214
  8.128   1.3081
  8.115   1.2875
  8.102   1.1742
  8.090   1.0815
  8.077   1.0197
  8.064   0.9682
  8.052   0.8755
  8.039   0.8858
  8.027   0.8446
  8.015   0.8961
  8.002   0.9167
  7.990   0.9270
  7.978   0.9373
  7.965   1.0094
  7.953   0.9682
  7.941   0.9888
  7.929   1.0197
  7.917   1.0712
  7.905   1.0918
  7.893   1.1124
  7.881   1.1227
  7.869   1.2154
  7.857   1.2669
  7.845   1.3287
  7.833   1.3287
  7.821   1.3699
  7.809   1.3699
  7.798   1.4111
  7.786   1.4214
  7.774   1.4729
  7.763   1.4729
  7.751   1.5038
  7.739   1.5244
  7.728   1.5759
  7.716   1.6274
  7.705   1.6686
  7.694   1.6377
  7.682   1.7098
  7.671   1.7613
  7.659   1.8128
  7.648   1.8643
  7.637   1.9673
  7.626   2.0600
  7.614   2.2145
  7.603   2.2866
  7.592   2.3484
  7.581   2.3999
  7.570   2.4823
  7.559   2.5029
  7.548   2.5029
  7.537   2.4411
  7.526   2.4102
  7.515   2.3278
  7.504   2.2866
  7.493   2.2454
  7.483   2.2042
  7.472   2.1218
  7.461   2.0291
  7.450   1.8849
  7.440   1.8334
  7.429   1.7922
  7.418   1.8231
  7.408   1.7819
  7.397   1.7819
  7.387   1.7922
  7.376   1.8128
  7.366   1.8025
  7.355   1.8231
  7.345   1.8437
  7.334   1.8334
  7.324   1.7201
  7.314   1.6068
  7.303   1.4935
  7.293   1.4420
  7.283   1.3596
  7.273   1.3184
  7.263   1.2360
  7.252   1.2463
  7.242   1.2360
  7.232   1.2978
  7.222   1.3596
  7.212   1.4420
  7.202   1.4523
  7.192   1.5347
  7.182   1.5862
  7.172   1.6171
  7.162   1.5759
  7.152   1.6171
  7.143   1.6480
  7.133   1.6789
  7.123   1.6274
  7.113   1.6480
  7.103   1.6583
  7.094   1.7098
  7.084   1.7407
  7.074   1.8334
  7.065   1.8849
  7.055   1.9364
  7.046   2.0291
  7.036   2.1115
  7.026   2.1218
  7.017   2.1939
  7.007   2.2145
  6.998   2.2557
  6.989   2.2557
  6.979   2.2866
  6.970   2.2351
  6.960   2.1836
  6.951   2.0909
  6.942   1.9467
  6.932   1.7716
  6.923   1.6583
  6.914   1.4729
  6.905   1.2875
  6.896   1.1330
  6.886   1.0506
  6.877   0.9476
  6.868   0.9064
  6.859   0.8549
  6.850   0.8549
  6.841   0.8034
  6.832   0.7622
  6.823   0.7519
  6.814   0.7416
  6.805   0.6798
  6.796   0.7313
  6.787   0.7622
  6.778   0.7931
  6.770   0.7210
  6.761   0.7004
  6.752   0.7004
  6.743   0.7416
  6.734   0.7416
  6.726   0.7519
  6.717   0.7210
  6.708   0.7313
  6.700   0.7107
  6.691   0.7107
  6.682   0.6798
  6.674   0.7313
  6.665   0.7210
  6.657   0.7313
  6.648   0.7519
  6.640   0.8034
  6.631   0.8034
  6.623   0.8034
  6.614   0.8240
  6.606   0.8755
  6.597   0.8961
  6.589   0.9373
  6.581   0.9270
  6.572   0.9785
  6.564   1.0403
  6.556   1.0403
  6.547   1.0094
  6.539   1.0300
  6.531   0.9785
  6.523   1.0197
  6.514   1.0815
  6.506   1.1124
  6.498   1.1227
  6.490   1.1742
  6.482   1.1536
  6.474   1.1639
  6.466   1.1330
  6.458   1.1536
  6.450   1.1845
  6.442   1.1948
  6.434   1.1948
  6.426   1.2463
  6.418   1.2566
  6.410   1.2360
  6.402   1.2154
  6.394   1.2463
  6.386   1.2669
  6.378   1.2772
  6.370   1.2566
  6.363   1.2772
  6.355   1.2669
  6.347   1.2669
  6.339   1.2566
  6.332   1.2772
  6.324   1.2875
  6.316   1.2978
  6.308   1.2669
  6.301   1.2463
  6.293   1.2669
  6.286   1.3081
  6.278   1.2875
  6.270   1.2772
  6.263   1.2669
  6.255   1.2669
  6.248   1.2566
  6.240   1.2257
  6.233   1.2051
  6.225   1.2257
  6.218   1.1948
  6.210   1.2257
  6.203   1.2360
  6.195   1.2051
  6.188   1.1845
  6.181   1.2257
  6.173   1.2051
  6.166   1.1639
  6.159   1.1330
  6.151   1.1124
  6.144   1.0609
  6.137   1.0712
  6.130   1.0815
  6.122   1.0918
  6.115   1.0815
  6.108   1.0918
  6.101   1.1124
  6.094   1.1021
  6.086   1.0506
  6.079   1.0815
  6.072   1.1124
  6.065   1.1742
  6.058   1.1742
  6.051   1.1536
  6.044   1.1948
  6.037   1.2051
  6.030   1.1845
  6.023   1.1742
  6.016   1.1536
  6.009   1.1639
  6.002   1.1227
  5.995   1.0712
  5.988   1.0403
  5.981   1.0712
  5.974   1.0918
  5.967   1.1021
  5.960   1.0712
  5.954   1.1021
  5.947   1.1330
  5.940   1.1742
  5.933   1.1948
  5.926   1.2463
  5.920   1.2669
  5.913   1.3390
  5.906   1.3390
  5.899   1.3905
  5.893   1.4626
  5.886   1.4832
  5.879   1.4523
  5.873   1.4523
  5.866   1.4317
  5.859   1.4832
  5.853   1.5553
  5.846   1.5656
  5.840   1.5656
  5.833   1.5862
  5.827   1.6377
  5.820   1.6789
  5.813   1.7304
  5.807   1.7407
  5.800   1.7407
  5.794   1.8334
  5.788   1.8643
  5.781   1.8952
  5.775   1.9055
  5.768   1.9776
  5.762   2.0394
  5.755   2.0703
  5.749   2.1012
  5.743   2.1218
  5.736   2.1321
  5.730   2.1733
  5.724   2.1733
  5.717   2.2042
  5.711   2.2248
  5.705   2.2969
  5.698   2.3381
  5.692   2.3690
  5.686   2.3896
  5.680   2.4102
  5.674   2.4205
  5.667   2.4308
  5.661   2.4411
  5.655   2.4823
  5.649   2.4926
  5.643   2.5132
  5.637   2.5338
  5.630   2.5441
  5.624   2.5647
  5.618   2.5956
  5.612   2.5956
  5.606   2.5956
  5.600   2.6368
  5.594   2.6574
  5.588   2.6677
  5.582   2.6883
  5.576   2.6986
  5.570   2.6986
  5.564   2.7089
  5.558   2.7089
  5.552   2.6883
  5.546   2.6986
  5.540   2.6677
  5.534   2.6883
  5.528   2.7192
  5.523   2.7398
  5.517   2.7398
  5.511   2.7192
  5.505   2.7192
  5.499   2.7192
  5.493   2.7501
  5.487   2.7604
  5.482   2.7398
  5.476   2.7398
  5.470   2.7192
  5.464   2.7192
  5.459   2.7192
  5.453   2.7398
  5.447   2.7707
  5.441   2.7810
  5.436   2.7707
  5.430   2.7501
  5.424   2.7398
  5.419   2.7707
  5.413   2.8119
  5.407   2.7913
  5.402   2.7707
  5.396   2.8325
  5.390   2.8119
  5.385   2.8016
  5.379   2.7913
  5.374   2.8119
  5.368   2.8531
  5.363   2.8634
  5.357   2.8325
  5.352   2.8222
  5.346   2.8222
  5.341   2.8428
  5.335   2.8325
  5.330   2.8325
  5.324   2.8737
  5.319   2.8531
  5.313   2.8119
  5.308   2.7913
  5.302   2.7707
  5.297   2.8119
  5.291   2.8428
  5.286   2.8428
  5.281   2.8222
  5.275   2.7913
  5.270   2.7707
  5.265   2.7707
  5.259   2.8016
  5.254   2.8222
  5.249   2.8428
  5.243   2.8531
  5.238   2.8428
  5.233   2.8325
  5.227   2.8428
  5.222   2.8840
  5.217   2.9046
  5.212   2.9149
  5.206   2.9252
  5.201   2.9355
  5.196   2.9767
  5.191   3.0076
  5.186   3.0076
  5.180   2.9973
  5.175   3.0282
  5.170   3.0488
  5.165   3.0385
  5.160   3.0385
  5.155   3.0385
  5.150   3.1003
  5.145   3.0694
  5.139   3.0385
  5.134   3.0282
  5.129   3.0488
  5.124   3.0591
  5.119   3.0900
  5.114   3.0797
  5.109   3.0694
  5.104   3.0694
  5.099   3.0900
  5.094   3.0900
  5.089   3.0694
  5.084   3.0385
  5.079   3.0282
  5.074   3.0385
  5.069   3.0591
  5.064   3.0694
  5.059   3.1003
  5.054   3.0797
  5.049   3.0385
  5.044   3.0385
  5.040   3.0385
  5.035   3.0385
  5.030   3.0488
  5.025   3.0385
  5.020   3.0282
  5.015   3.0282
  5.010   3.0282
  5.005   3.0282
  5.001   3.0179
  4.996   3.0282
  4.991   3.0591
  4.986   3.0488
  4.981   3.0488
  4.977   3.0282
  4.972   3.0488
  4.967   3.0488
  4.962   3.0591
  4.958   3.0488
  4.953   3.0282
  4.948   3.0282
  4.943   3.0488
  4.939   3.0900
  4.934   3.0797
  4.929   3.0385
  4.925   3.0179
  4.920   3.0076
  4.915   3.0179
  4.911   3.0694
  4.906   3.0900
  4.901   3.0694
  4.897   3.0694
  4.892   3.0797
  4.888   3.0797
  4.883   3.0797
  4.878   3.0694
  4.874   3.0591
  4.869   3.0797
  4.865   3.1003
  4.860   3.0900
  4.856   3.0488
  4.851   3.0385
  4.846   3.0694
  4.842   3.0694
  4.837   3.0591
  4.833   3.0488
  4.828   3.0591
  4.824   3.0282
  4.819   2.9767
  4.815   2.9973
  4.810   3.0488
  4.806   3.0179
  4.802   2.9458
  4.797   2.9458
  4.793   2.9664
  4.788   2.9561
  4.784   2.9355
  4.779   2.9252
  4.775   2.9355
  4.771   2.9458
  4.766   2.9149
  4.762   2.9149
  4.758   2.9149
  4.753   2.8943
  4.749   2.8325
  4.744   2.8016
  4.740   2.8325
  4.736   2.8634
  4.731   2.8119
  4.727   2.7707
  4.723   2.7604
  4.719   2.7707
  4.714   2.7604
  4.710   2.7913
  4.706   2.8531
  4.701   2.8428
  4.697   2.8119
  4.693   2.7913
  4.689   2.7913
  4.684   2.7810
  4.680   2.7810
  4.676   2.8222
  4.672   2.8737
  4.668   2.8428
  4.663   2.8119
  4.659   2.8119
  4.655   2.8016
  4.651   2.8119
  4.647   2.8325
  4.643   2.7913
  4.638   2.8016
  4.634   2.8016
  4.630   2.7810
  4.626   2.7810
  4.622   2.7604
  4.618   2.7501
  4.614   2.8119
  4.610   2.7913
  4.605   2.7192
  4.601   2.7295
  4.597   2.7295
  4.593   2.7501
  4.589   2.7604
  4.585   2.7192
  4.581   2.6780
  4.577   2.7295
  4.573   2.7398
  4.569   2.7089
  4.565   2.7192
  4.561   2.7295
  4.557   2.7501
  4.553   2.7398
  4.549   2.6780
  4.545   2.6574
  4.541   2.6883
  4.537   2.7089
  4.533   2.7295
  4.529   2.7398
  4.525   2.7089
  4.521   2.6677
  4.517   2.6986
  4.513   2.7295
  4.509   2.6986
  4.505   2.6986
  4.502   2.7810
  4.498   2.7810
  4.494   2.7398
  4.490   2.7295
  4.486   2.7398
  4.482   2.7192
  4.478   2.7192
  4.474   2.7398
  4.470   2.7604
  4.467   2.7810
  4.463   2.7604
  4.459   2.7501
  4.455   2.7810
  4.451   2.7810
  4.447   2.7707
  4.444   2.7707
  4.440   2.8222
  4.436   2.8325
  4.432   2.7913
  4.428   2.7707
  4.425   2.7295
  4.421   2.7501
  4.417   2.8222
  4.413   2.8634
  4.410   2.8222
  4.406   2.8016
  4.402   2.8325
  4.398   2.8325
  4.395   2.8016
  4.391   2.8119
  4.387   2.8428
  4.384   2.8531
  4.380   2.8634
  4.376   2.8840
  4.372   2.9046
  4.369   2.8531
  4.365   2.8222
  4.361   2.8325
  4.358   2.8325
  4.354   2.8531
  4.350   2.8634
  4.347   2.8840
  4.343   2.8943
  4.340   2.8531
  4.336   2.8325
  4.332   2.8119
  4.329   2.8428
  4.325   2.9046
  4.321   2.9046
  4.318   2.8840
  4.314   2.8943
  4.311   2.8840
  4.307   2.9458
  4.304   2.9355
  4.300   2.8222
  4.296   2.8119
  4.293   2.8531
  4.289   2.8634
  4.286   2.9046
  4.282   2.9664
  4.279   2.9355
  4.275   2.8531
  4.272   2.8737
  4.268   2.8737
  4.265   2.8531
  4.261   2.8428
  4.258   2.8428
  4.254   2.8325
  4.251   2.8634
  4.247   2.8634
  4.244   2.8325
  4.240   2.8222
  4.237   2.7913
  4.233   2.7810
  4.230   2.8016
  4.226   2.7398
  4.223   2.7089
  4.219   2.6780
  4.216   2.6574
  4.213   2.6574
  4.209   2.5956
  4.206   2.5132
  4.202   2.4926
  4.199   2.4823
  4.196   2.4102
  4.192   2.3793
  4.189   2.4411
  4.185   2.4411
  4.182   2.4308
  4.179   2.4617
  4.175   2.4308
  4.172   2.4308
  4.169   2.4720
  4.165   2.4720
  4.162   2.5029
  4.159   2.5132
  4.155   2.5647
  4.152   2.5853
  4.149   2.5338
  4.145   2.5132
  4.142   2.5338
  4.139   2.5647
  4.135   2.6780
  4.132   2.7707
  4.129   2.7398
  4.126   2.6883
  4.122   2.6677
  4.119   2.6780
  4.116   2.7192
  4.112   2.6883
  4.109   2.6883
  4.106   2.7089
  4.103   2.7398
  4.099   2.7501
  4.096   2.7295
  4.093   2.6986
  4.090   2.6986
  4.086   2.6780
  4.083   2.6471
  4.080   2.6780
  4.077   2.7089
  4.074   2.6574
  4.070   2.6265
  4.067   2.6162
  4.064   2.6162
  4.061   2.5956
  4.058   2.6162
  4.055   2.6471
  4.051   2.6265
  4.048   2.5956
  4.045   2.6162
  4.042   2.5956
  4.039   2.5750
  4.036   2.5235
  4.032   2.5441
  4.029   2.5338
  4.026   2.5441
  4.023   2.5750
  4.020   2.6162
  4.017   2.5853
  4.014   2.5647
  4.011   2.5647
  4.008   2.5647
  4.004   2.5132
  4.001   2.5544
  3.998   2.5647
  3.995   2.5441
  3.992   2.5544
  3.989   2.5750
  3.986   2.5544
  3.983   2.5544
  3.980   2.5544
  3.977   2.5750
  3.974   2.5441
  3.971   2.4926
  3.968   2.4720
  3.965   2.4823
  3.962   2.5441
  3.959   2.5750
  3.956   2.5441
  3.953   2.5647
  3.950   2.6368
  3.947   2.6471
  3.944   2.6368
  3.941   2.5956
  3.938   2.5750
  3.935   2.6059
  3.932   2.6265
  3.929   2.6883
  3.926   2.7192
  3.923   2.6986
  3.920   2.6677
  3.917   2.7192
  3.914   2.7707
  3.911   2.7810
  3.908   2.7501
  3.905   2.7913
  3.902   2.8428
  3.899   2.8634
  3.896   2.8737
  3.893   2.9355
  3.890   2.9149
  3.887   2.9149
  3.884   2.9149
  3.882   2.9561
  3.879   2.9561
  3.876   2.9561
  3.873   2.9870
  3.870   3.0797
  3.867   3.1003
  3.864   3.1312
  3.861   3.0900
  3.858   3.0797
  3.856   3.0385
  3.853   2.9870
  3.850   2.9767
  3.847   3.0076
  3.844   2.9870
  3.841   2.9870
  3.838   2.9664
  3.836   3.0179
  3.833   2.9664
  3.830   2.9149
  3.827   2.9149
  3.824   2.9561
  3.822   2.9870
  3.819   3.0694
  3.816   3.0385
  3.813   3.0179
  3.810   2.9767
  3.807   2.9767
  3.805   3.0282
  3.802   3.0076
  3.799   2.9149
  3.796   2.9561
  3.794   2.9664
  3.791   2.9149
  3.788   2.9458
  3.785   3.0488
  3.782   3.0282
  3.780   2.9355
  3.777   2.9664
  3.774   3.0591
  3.771   3.0797
  3.769   2.9870
  3.766   2.9046
  3.763   2.9664
  3.761   3.0076
  3.758   2.9767
  3.755   2.8840
  3.752   2.9561
  3.750   2.9870
  3.747   2.9767
  3.744   2.9561
  3.742   2.9870
  3.739   2.9458
  3.736   2.9355
  3.733   3.0076
  3.731   2.9973
  3.728   2.9355
  3.725   3.0282
  3.723   3.0900
  3.720   3.0385
  3.717   3.0076
  3.715   3.0385
  3.712   3.0488
  3.709   3.0488
  3.707   3.0076
  3.704   2.9973
  3.702   2.9973
  3.699   3.0488
  3.696   2.9973
  3.694   3.0179
  3.691   3.1209
  3.688   3.1827
  3.686   3.1312
  3.683   3.1621
  3.680   3.1724
  3.678   3.1518
  3.675   3.1106
  3.673   3.1106
  3.670   3.1003
  3.667   3.0797
  3.665   3.0282
  3.662   3.0797
  3.660   3.1209
  3.657   3.1106
  3.655   3.0694
  3.652   3.0591
  3.649   3.0488
  3.647   3.1106
  3.644   3.1518
  3.642   3.1827
  3.639   3.1312
  3.637   3.0385
  3.634   2.9561
  3.632   2.9870
  3.629   3.0282
  3.626   3.0488
  3.624   3.0694
  3.621   3.0694
  3.619   3.0900
  3.616   3.0385
  3.614   2.9664
  3.611   2.9767
  3.609   2.9561
  3.606   3.0076
  3.604   3.0179
  3.601   2.9767
  3.599   2.8634
  3.596   2.8737
  3.594   2.8840
  3.591   2.8840
  3.589   2.8737
  3.586   2.9046
  3.584   2.9149
  3.581   2.9046
  3.579   2.8531
  3.576   2.8119
  3.574   2.8325
  3.571   2.8634
  3.569   2.8119
  3.567   2.8222
  3.564   2.8119
  3.562   2.8222
  3.559   2.7913
  3.557   2.7707
  3.554   2.7604
  3.552   2.7810
  3.549   2.7604
  3.547   2.7398
  3.545   2.7192
  3.542   2.7398
  3.540   2.7707
  3.537   2.8428
  3.535   2.8016
  3.533   2.7707
  3.530   2.7913
  3.528   2.7810
  3.525   2.6677
  3.523   2.6059
  3.521   2.6368
  3.518   2.6986
  3.516   2.6780
  3.513   2.7089
  3.511   2.6677
  3.509   2.6471
  3.506   2.6265
  3.504   2.6162
  3.502   2.6368
  3.499   2.6780
  3.497   2.6574
  3.494   2.6162
  3.492   2.5956
  3.490   2.5853
  3.487   2.6368
  3.485   2.6677
  3.483   2.5853
  3.480   2.5647
  3.478   2.6162
  3.476   2.6368
  3.473   2.5750
  3.471   2.5132
  3.469   2.4720
  3.466   2.5132
  3.464   2.5853
  3.462   2.5441
  3.460   2.4720
  3.457   2.5544
  3.455   2.5647
  3.453   2.5338
  3.450   2.5029
  3.448   2.5029
  3.446   2.4411
  3.443   2.4205
  3.441   2.4205
  3.439   2.4205
  3.437   2.4308
  3.434   2.4617
  3.432   2.3896
  3.430   2.3896
  3.428   2.3999
  3.425   2.3793
  3.423   2.3587
  3.421   2.3999
  3.418   2.4205
  3.416   2.3999
  3.414   2.3484
  3.412   2.3175
  3.409   2.3175
  3.407   2.3381
  3.405   2.2969
  3.403   2.2969
  3.401   2.3278
  3.398   2.4102
  3.396   2.3793
  3.394   2.3690
  3.392   2.4102
  3.389   2.3999
  3.387   2.3175
  3.385   2.3175
  3.383   2.3278
  3.381   2.2969
  3.378   2.1836
  3.376   2.2351
  3.374   2.3484
  3.372   2.3690
  3.370   2.3278
  3.367   2.2763
  3.365   2.2351
  3.363   2.2454
  3.361   2.2454
  3.359   2.2763
  3.357   2.1630
  3.354   2.1733
  3.352   2.1836
  3.350   2.2145
  3.348   2.3278
  3.346   2.3175
  3.344   2.2042
  3.341   2.1939
  3.339   2.2145
  3.337   2.2557
  3.335   2.2145
  3.333   2.2248
  3.331   2.2042
  3.329   2.2145
  3.326   2.2351
  3.324   2.2248
  3.322   2.1939
  3.320   2.1733
  3.318   2.1527
  3.316   2.1836
  3.314   2.1733
  3.312   2.1733
  3.309   2.1012
  3.307   2.0909
  3.305   2.0703
  3.303   2.1218
  3.301   2.1115
  3.299   2.1424
  3.297   2.1527
  3.295   2.0806
  3.293   2.0085
  3.291   2.0497
  3.288   2.0703
  3.286   2.1527
  3.284   2.0909
  3.282   2.0085
  3.280   2.0085
  3.278   2.0394
  3.276   2.1012
  3.274   2.1424
  3.272   2.0909
  3.270   2.1012
  3.268   2.1527
  3.266   2.1218
  3.264   1.9776
  3.262   1.9982
  3.259   2.0600
  3.257   2.0909
  3.255   2.0497
  3.253   2.0497
  3.251   2.0085
  3.249   2.0188
  3.247   2.0188
  3.245   1.9982
  3.243   1.9467
  3.241   1.9158
  3.239   1.9261
  3.237   1.9570
  3.235   1.9364
  3.233   1.8952
  3.231   1.8643
  3.229   1.8952
  3.227   1.8746
  3.225   1.9467
  3.223   1.9776
  3.221   1.9982
  3.219   1.9261
  3.217   1.8437
  3.215   1.7613
  3.213   1.8025
  3.211   1.8231
  3.209   1.8025
  3.207   1.7613
  3.205   1.7407
  3.203   1.6892
  3.201   1.7304
  3.199   1.7201
  3.197   1.7613
  3.195   1.7613
  3.193   1.7304
  3.191   1.6171
  3.189   1.5862
  3.187   1.5759
  3.185   1.5862
  3.183   1.5965
  3.182   1.5862
  3.180   1.5038
  3.178   1.5038
  3.176   1.4832
  3.174   1.5656
  3.172   1.5759
  3.170   1.5862
  3.168   1.5347
  3.166   1.5553
  3.164   1.5759
  3.162   1.5656
  3.160   1.5141
  3.158   1.5862
  3.156   1.5141
  3.154   1.4523
  3.152   1.4626
  3.151   1.5862
  3.149   1.6377
  3.147   1.5965
  3.145   1.5656
  3.143   1.5347
  3.141   1.4626
  3.139   1.4832
  3.137   1.5244
  3.135   1.5244
  3.133   1.4729
  3.132   1.4523
  3.130   1.4626
  3.128   1.5038
  3.126   1.4935
  3.124   1.5244
  3.122   1.4832
  3.120   1.4111
  3.118   1.4317
  3.117   1.5450
  3.115   1.5347
  3.113   1.4935
  3.111   1.4626
  3.109   1.4832
  3.107   1.4317
  3.105   1.4214
  3.103   1.3596
  3.102   1.3596
  3.100   1.3184
  3.098   1.3390
  3.096   1.4214
  3.094   1.4420
  3.092   1.4008
  3.091   1.3699
  3.089   1.3287
  3.087   1.3699
  3.085   1.3802
  3.083   1.3390
  3.081   1.2669
  3.079   1.2875
  3.078   1.3287
  3.076   1.3802
  3.074   1.3596
  3.072   1.3905
  3.070   1.3596
  3.069   1.2875
  3.067   1.2669
  3.065   1.2978
  3.063   1.3596
  3.061   1.4317
  3.060   1.4111
  3.058   1.4729
  3.056   1.4214
  3.054   1.3596
  3.052   1.4111
  3.051   1.4317
  3.049   1.3081
  3.047   1.3493
  3.045   1.3596
  3.043   1.3493
  3.042   1.2566
  3.040   1.2772
  3.038   1.2875
  3.036   1.3905
  3.034   1.3905
  3.033   1.3081
  3.031   1.2360
  3.029   1.3081
  3.027   1.2978
  3.026   1.2772
  3.024   1.2257
  3.022   1.2566
  3.020   1.3081
  3.019   1.2875
  3.017   1.1948
  3.015   1.2463
  3.013   1.3081
  3.012   1.2669
  3.010   1.1536
  3.008   1.2051
  3.006   1.2257
  3.005   1.3287
  3.003   1.3081
  3.001   1.2669
  2.999   1.2669
  2.998   1.3596
  2.996   1.2978
  2.994   1.2051
  2.992   1.2154
  2.991   1.3390
  2.989   1.3699
  2.987   1.3287
  2.986   1.2772
  2.984   1.2360
  2.982   1.2257
  2.980   1.2875
  2.979   1.2875
  2.977   1.3184
  2.975   1.2360
  2.974   1.2257
  2.972   1.2463
  2.970   1.2566
  2.968   1.1845
  2.967   1.1639
  2.965   1.1433
  2.963   1.2772
  2.962   1.2978
  2.960   1.2669
  2.958   1.1639
  2.957   1.2566
  2.955   1.2463
  2.953   1.2051
  2.952   1.1845
  2.950   1.2669
  2.948   1.3390
  2.947   1.3081
  2.945   1.2875
  2.943   1.2360
  2.942   1.2978
  2.940   1.4317
  2.938   1.4214
  2.937   1.4420
  2.935   1.4214
  2.933   1.3390
  2.932   1.1845
  2.930   1.2257
  2.928   1.2257
  2.927   1.2257
  2.925   1.2566
  2.923   1.2669
  2.922   1.1433
  2.920   1.1433
  2.918   1.1948
  2.917   1.1330
  2.915   0.9991
  2.913   1.0712
  2.912   1.1021
  2.910   1.0918
  2.909   0.9270
  2.907   0.9579
  2.905   0.9476
  2.904   0.9888
  2.902   1.0094
  2.900   1.0197
  2.899   0.9064
  2.897   1.0609
  2.896   1.2360
  2.894   1.0918
  2.892   0.8961
  2.891   0.9167
  2.889   0.8961
  2.887   0.9270
  2.886   0.9373
  2.884   0.9064
  2.883   0.9167
  2.881   1.0197
  2.879   0.9888
  2.878   1.0197
  2.876   0.9888
  2.875   0.9991
  2.873   0.9476
  2.871   0.9682
  2.870   1.0197
  2.868   0.9888
  2.867   0.9270
  2.865   1.0712
  2.864   1.0609
  2.862   1.0197
  2.860   0.9682
  2.859   0.9991
  2.857   1.0197
  2.856   1.0506
  2.854   1.0712
  2.853   1.1227
  2.851   0.9682
  2.849   0.8652
  2.848   0.8858
  2.846   0.9167
  2.845   0.8858
  2.843   0.9476
  2.842   0.9373
  2.840   0.9888
  2.838   0.9476
  2.837   0.9373
  2.835   0.9064
  2.834   0.9785
  2.832   0.9682
  2.831   0.8549
  2.829   0.7416
  2.828   0.7725
  2.826   0.7725
  2.825   0.9476
  2.823   0.9785
  2.821   0.8652
  2.820   0.6386
  2.818   0.6695
  2.817   0.8961
  2.815   0.9682
  2.814   0.8961
  2.812   0.9682
  2.811   0.9682
  2.809   1.1021
  2.808   1.1021
  2.806   1.1124
  2.805   1.0094
  2.803   0.9991
  2.802   1.0094
  2.800   1.0300
  2.799   0.9682
  2.797   1.0300
  2.796   1.0403
  2.794   1.0197
  2.793   1.0197
  2.791   1.0815
  2.790   1.1227
  2.788   1.2154
  2.787   1.2669
  2.785   1.3184
  2.784   1.1948
  2.782   1.2154
  2.781   1.3802
  2.779   1.5038
  2.778   1.2669
  2.776   1.0918
  2.775   0.9579
  2.773   0.9167
  2.772   0.8446
  2.770   0.9476
  2.769   0.9682
  2.767   0.9579
  2.766   0.9270
  2.764   0.9373
  2.763   0.9888
  2.761   1.1021
  2.760   1.1536
  2.758   1.2154
  2.757   1.1845
  2.756   1.2360
  2.754   1.3287
  2.753   1.3905
  2.751   1.3081
  2.750   1.3184
  2.748   1.4214
  2.747   1.5141
  2.745   1.4729
  2.744   1.6789
  2.742   1.7407
  2.741   1.8128
  2.740   1.9467
  2.738   2.0085
  2.737   1.9982
  2.735   2.2660
  2.734   2.4102
  2.732   2.4308
  2.731   2.4102
  2.729   2.6265
  2.728   2.7089
  2.727   2.8119
  2.725   2.8840
  2.724   2.8634
  2.722   2.9252
  2.721   3.0488
  2.719   3.2857
  2.718   3.3063
  2.717   3.2342
  2.715   3.3784
  2.714   3.5947
  2.712   3.8213
  2.711   3.9243
  2.709   4.1303
  2.708   4.1097
  2.707   4.1509
  2.705   4.2539
  2.704   4.3157
  2.702   4.5114
  2.701   4.8513
  2.700   4.9955
  2.698   5.0573
  2.697   5.1191
  2.695   5.2118
  2.694   5.2324
  2.693   5.4796
  2.691   5.6650
  2.690   5.7165
  2.688   5.7165
  2.687   5.9431
  2.686   6.0564
  2.684   6.2624
  2.683   6.3036
  2.681   6.2521
  2.680   6.3551
  2.679   6.6847
  2.677   6.7156
  2.676   6.7774
  2.675   6.8495
  2.673   6.9422
  2.672   7.1585
  2.670   7.4984
  2.669   7.5087
  2.668   7.5705
  2.666   7.6426
  2.665   7.6632
  2.664   7.6117
  2.662   7.5808
  2.661   7.7456
  2.659   7.9928
  2.658   7.9825
  2.657   7.9516
  2.655   7.9104
  2.654   8.1164
  2.653   8.3533
  2.651   8.3945
  2.650   8.3636
  2.649   8.5078
  2.647   8.6829
  2.646   8.7550
  2.645   8.7035
  2.643   8.8168
  2.642   8.9507
  2.640   9.0331
  2.639   9.1258
  2.638   9.2288
  2.636   9.1258
  2.635   9.1464
  2.634   9.3112
  2.632   9.6305
  2.631   9.6820
  2.630   9.6099
  2.628   9.5687
  2.627   9.8468
  2.626  10.0425
  2.624   9.9395
  2.623   9.8674
  2.622  10.1249
  2.620  10.2382
  2.619  10.2073
  2.618  10.2485
  2.617  10.4133
  2.615  10.4442
  2.614  10.3721
  2.613  10.2176
  2.611  10.2588
  2.610  10.3721
  2.609  10.4236
  2.607  10.3824
  2.606  10.3309
  2.605  10.3721
  2.603  10.4751
  2.602  10.5163
  2.601  10.5060
  2.599  10.4751
  2.598  10.7223
  2.597  10.7120
  2.596  10.7223
  2.594  10.7223
  2.593  10.5987
  2.592  10.5575
  2.590  10.5163
  2.589  10.4751
  2.588  10.4854
  2.586  10.5369
  2.585  10.8356
  2.584  10.9489
  2.583  10.9695
  2.581  10.8974
  2.580  10.8047
  2.579  10.9283
  2.577  11.0828
  2.576  10.9695
  2.575  10.9798
  2.574  11.0416
  2.572  11.0416
  2.571  10.9077
  2.570  10.8974
  2.569  10.9489
  2.567  11.2064
  2.566  11.2579
  2.565  11.1652
  2.563  11.1858
  2.562  11.2064
  2.561  11.0931
  2.560  10.9901
  2.558  10.8356
  2.557  10.9180
  2.556  10.8665
  2.555  10.8253
  2.553  10.9695
  2.552  11.0725
  2.551  10.9077
  2.550  10.7429
  2.548  10.7944
  2.547  10.9180
  2.546  10.7635
  2.545  10.5884
  2.543  10.6914
  2.542  10.7738
  2.541  10.5060
  2.540  10.5781
  2.538  10.6193
  2.537  10.6193
  2.536  10.4751
  2.535  10.5884
  2.533  10.7429
  2.532  10.7120
  2.531  10.5781
  2.530  10.6502
  2.528  10.6502
  2.527  10.5781
  2.526  10.4236
  2.525  10.4442
  2.524  10.4854
  2.522  10.6193
  2.521  10.4957
  2.520  10.4236
  2.519  10.4854
  2.517  10.6193
  2.516  10.4957
  2.515  10.3206
  2.514  10.3412
  2.513  10.4442
  2.511  10.3309
  2.510  10.2691
  2.509  10.2794
  2.508  10.2279
  2.506  10.1558
  2.505  10.3000
  2.504  10.3309
  2.503  10.3000
  2.502  10.2382
  2.500  10.2897
  2.500  10.2897
  2.498  10.3558
  2.496  10.4825
  2.494  10.1823
  2.492  10.2894
  2.490  10.1388
  2.488  10.5903
  2.486  10.2008
  2.484  10.5198
  2.482  10.5034
  2.480  10.0715
  2.478  10.4494
  2.476  10.7677
  2.474  10.6411
  2.472  10.4711
  2.470  10.7359
  2.468  10.9797
  2.466  10.6337
  2.464  10.7107
  2.462  10.8653
  2.460  10.9580
  2.458  11.4690
  2.456  11.3008
  2.454  11.4487
  2.452  11.4505
  2.450  11.5907
  2.448  11.8470
  2.446  11.8138
  2.444  11.8910
  2.442  12.0286
  2.440  12.0370
  2.438  11.9813
  2.436  12.2825
  2.434  12.2839
  2.432  12.3041
  2.430  12.6317
  2.428  12.4464
  2.426  12.7062
  2.424  12.7229
  2.422  12.8763
  2.420  12.7830
  2.418  12.9588
  2.416  12.8733
  2.414  13.0798
  2.412  13.3004
  2.410  13.1638
  2.408  13.3528
  2.406  13.4370
  2.404  13.7401
  2.402  13.7124
  2.400  14.0184
  2.398  14.0096
  2.396  14.2122
  2.394  14.2496
  2.392  14.4976
  2.390  14.4674
  2.388  14.7309
  2.386  14.8462
  2.384  14.9531
  2.382  15.0172
  2.380  15.0439
  2.378  15.2956
  2.376  15.4436
  2.374  15.7884
  2.372  15.8525
  2.370  15.8486
  2.368  15.9625
  2.366  16.2162
  2.364  16.3286
  2.362  16.2608
  2.360  16.5437
  2.358  16.6705
  2.356  16.6797
  2.354  16.8056
  2.352  17.0000
  2.350  16.9156
  2.348  17.1673
  2.346  17.3018
  2.344  17.1928
  2.342  17.4437
  2.340  17.3630
  2.338  17.3440
  2.336  17.4775
  2.334  17.5770
  2.332  17.6274
  2.330  17.6136
  2.328  17.6530
  2.326  17.7824
  2.324  17.8116
  2.322  17.9549
  2.320  17.9054
  2.318  17.9428
  2.316  18.0754
  2.314  18.0251
  2.312  18.0423
  2.310  18.1836
  2.308  18.1780
  2.306  18.2148
  2.304  18.3083
  2.302  18.3379
  2.300  18.2525
  2.298  18.3311
  2.296  18.2847
  2.294  18.2674
  2.292  18.3501
  2.290  18.3012
  2.288  18.3310
  2.286  18.1954
  2.284  18.2596
  2.282  18.1834
  2.280  18.0702
  2.278  17.9092
  2.276  18.0081
  2.274  17.9550
  2.272  17.8387
  2.270  17.6283
  2.268  17.5120
  2.266  17.4369
  2.264  17.3171
  2.262  17.2285
  2.260  16.9291
  2.258  16.7629
  2.256  16.6479
  2.254  16.5832
  2.252  16.5101
  2.250  16.4869
  2.248  16.3429
  2.246  16.1645
  2.244  16.2920
  2.242  16.3713
  2.240  16.3608
  2.238  16.3071
  2.236  16.3345
  2.234  16.3648
  2.232  16.3944
  2.230  16.2832
  2.228  16.2425
  2.226  16.1765
  2.224  16.1131
  2.222  16.0957
  2.220  15.9934
  2.218  15.9456
  2.216  15.9452
  2.214  15.8287
  2.212  15.6269
  2.210  15.5470
  2.208  15.4532
  2.206  15.3207
  2.204  15.2526
  2.202  15.1124
  2.200  14.9189
  2.198  14.7409
  2.196  14.5896
  2.194  14.4424
  2.192  14.2887
  2.190  14.0469
  2.188  13.9472
  2.186  13.9405
  2.184  13.8516
  2.182  13.6238
  2.180  13.5098
  2.178  13.6748
  2.176  13.6984
  2.174  13.6504
  2.172  13.5963
  2.170  13.6392
  2.168  13.7734
  2.166  13.8883
  2.164  14.0241
  2.162  14.0884
  2.160  14.1905
  2.158  14.4247
  2.156  14.4738
  2.154  14.5272
  2.152  14.6518
  2.150  14.7332
  2.148  14.8606
  2.146  14.8550
  2.144  14.7591
  2.142  14.7888
  2.140  14.7872
  2.138  14.5796
  2.136  14.4302
  2.134  14.3352
  2.132  14.3345
  2.130  14.1905
  2.128  14.1220
  2.126  14.1637
  2.124  14.2443
  2.122  14.3036
  2.120  14.3941
  2.118  14.5312
  2.116  14.6132
  2.114  14.7590
  2.112  14.9294
  2.110  15.1309
  2.108  15.1204
  2.106  15.1897
  2.104  15.3202
  2.102  15.3427
  2.100  15.3768
  2.098  15.5009
  2.096  15.5070
  2.094  15.5920
  2.092  15.6069
  2.090  15.5691
  2.088  15.6936
  2.086  15.7841
  2.084  15.7845
  2.082  15.8014
  2.080  15.8260
  2.078  15.9247
  2.076  15.9839
  2.074  15.9508
  2.072  16.0300
  2.070  15.9935
  2.068  16.1460
  2.066  16.1023
  2.064  16.1795
  2.062  16.1635
  2.060  16.1825
  2.058  16.2802
  2.056  16.2223
  2.054  16.3343
  2.052  16.3386
  2.050  16.3675
  2.048  16.2447
  2.046  16.2731
  2.044  16.2191
  2.042  16.2597
  2.040  16.3435
  2.038  16.3388
  2.036  16.2192
  2.034  16.2550
  2.032  16.1530
  2.030  16.0958
  2.028  16.1667
  2.026  16.0798
  2.024  15.8962
  2.022  15.8632
  2.020  15.8930
  2.018  15.8181
  2.016  15.7393
  2.014  15.6501
  2.012  15.4357
  2.010  15.3923
  2.008  15.0958
  2.006  15.0077
  2.004  14.8750
  2.002  14.5433
  2.000  14.3496
  1.998  14.1294
  1.996  13.8045
  1.994  13.7250
  1.992  13.5265
  1.990  13.2357
  1.988  13.2284
  1.986  12.8106
  1.984  12.8234
  1.982  12.7281
  1.980  12.7044
  1.978  12.5447
  1.976  12.3591
  1.974  12.1827
  1.972  12.0948
  1.970  11.8921
  1.968  11.7057
  1.966  11.4549
  1.964  11.1961
  1.962  10.8929
  1.960  10.9142
  1.958  10.8046
  1.956  10.6206
  1.954  10.9100
  1.952  11.1757
  1.950  11.3601
  1.948  11.6980
  1.946  11.8801
  1.944  12.3665
  1.942  12.8113
  1.940  13.2322
  1.938  13.6071
  1.936  14.0824
  1.934  14.4691
  1.932  15.1517
  1.930  15.4346
  1.928  16.0749
  1.926  16.4674
  1.924  16.8975
  1.922  17.2840
  1.920  17.6833
  1.918  18.1942
  1.916  18.5951
  1.914  18.9506
  1.912  19.4613
  1.910  19.9778
  1.908  20.3765
  1.906  20.8987
  1.904  21.2672
  1.902  21.7327
  1.900  22.1817
  1.898  22.6886
  1.896  23.0553
  1.894  23.4063
  1.892  23.8280
  1.890  24.1754
  1.888  24.6818
  1.886  24.9712
  1.884  25.4161
  1.882  25.3927
  1.880  25.8935
  1.878  26.0936
  1.876  26.2216
  1.874  26.6146
  1.872  26.8940
  1.870  27.0857
  1.868  27.5257
  1.866  27.5427
  1.864  27.9811
  1.862  27.9580
  1.860  28.0216
  1.858  28.4085
  1.856  28.2262
  1.854  28.5233
  1.852  28.6351
  1.850  28.7438
  1.848  28.8210
  1.846  28.8407
  1.844  28.9582
  1.842  29.0447
  1.840  29.2571
  1.838  29.2289
  1.836  29.2699
  1.834  29.4384
  1.832  29.5408
  1.830  29.6153
  1.828  29.4865
  1.826  29.4420
  1.824  29.5598
  1.822  29.6216
  1.820  29.5295
  1.818  29.5736
  1.816  29.5011
  1.814  29.7590
  1.812  29.4372
  1.810  29.7172
  1.808  29.3336
  1.806  29.5280
  1.804  29.2877
  1.802  29.3818
  1.800  29.2052
  1.798  29.1864
  1.796  29.1292
  1.794  28.9972
  1.792  28.9059
  1.790  28.9345
  1.788  28.8957
  1.786  29.0721
  1.784  28.8560
  1.782  28.9776
  1.780  28.8375
  1.778  28.7726
  1.776  28.9275
  1.774  28.9333
  1.772  28.9785
  1.770  28.8660
  1.768  29.0652
  1.766  28.9839
  1.764  28.8486
  1.762  29.0002
  1.760  29.0246
  1.758  29.1770
  1.756  29.0217
  1.754  29.2678
  1.752  29.2242
  1.750  29.1183
  1.748  29.2852
  1.746  29.2362
  1.744  29.1876
  1.742  29.4482
  1.740  29.4496
  1.738  29.5101
  1.736  29.4246
  1.734  29.5210
  1.732  29.3492
  1.730  29.5273
  1.728  29.5900
  1.726  29.6897
  1.724  29.5648
  1.722  29.5343
  1.720  29.7147
  1.718  29.5629
  1.716  29.7890
  1.714  29.7929
  1.712  29.7123
  1.710  29.7365
  1.708  29.8041
  1.706  29.8629
  1.704  29.7859
  1.702  29.8370
  1.700  29.7674
  1.698  29.8061
  1.696  29.8057
  1.694  29.9523
  1.692  29.9724
  1.690  30.0631
  1.688  29.9839
  1.686  30.1040
  1.684  30.0307
  1.682  30.0913
  1.680  30.0219
  1.678  30.0224
  1.676  30.1686
  1.674  30.1694
  1.672  30.2267
  1.670  30.2530
  1.668  30.2742
  1.666  30.3181
  1.664  30.3503
  1.662  30.3519
  1.660  30.4892
  1.658  30.4039
  1.656  30.4664
  1.654  30.5425
  1.652  30.5699
  1.650  30.6690
  1.648  30.6472
  1.646  30.5184
  1.644  30.7042
  1.642  30.7528
  1.640  30.8177
  1.638  30.7377
  1.636  30.8827
  1.634  30.9226
  1.632  31.0048
  1.630  30.9380
  1.628  30.9228
  1.626  31.0080
  1.624  31.1075
  1.622  31.1931
  1.620  31.2544
  1.618  31.3044
  1.616  31.3779
  1.614  31.4662
  1.612  31.5174
  1.610  31.5217
  1.608  31.5985
  1.606  31.6995
  1.604  31.6947
  1.602  31.7104
  1.600  31.8083
  1.598  31.8395
  1.596  31.9228
  1.594  31.9897
  1.592  32.0878
  1.590  32.1046
  1.588  32.1343
  1.586  32.2597
  1.584  32.2340
  1.582  32.1664
  1.580  32.1951
  1.578  32.1496
  1.576  32.1781
  1.574  32.1998
  1.572  32.2530
  1.570  32.2131
  1.568  32.1412
  1.566  32.1486
  1.564  32.1543
  1.562  32.0122
  1.560  31.9102
  1.558  31.9423
  1.556  31.9536
  1.554  31.7894
  1.552  31.7663
  1.550  31.6562
  1.548  31.4956
  1.546  31.5107
  1.544  31.4185
  1.542  31.2563
  1.540  31.1549
  1.538  31.2098
  1.536  31.0839
  1.534  31.1351
  1.532  31.1004
  1.530  30.8717
  1.528  30.6941
  1.526  30.7225
  1.524  30.6355
  1.522  30.5993
  1.520  30.6640
  1.518  30.4811
  1.516  30.2055
  1.514  30.0040
  1.512  29.9672
  1.510  29.7559
  1.508  29.6281
  1.506  29.5805
  1.504  29.5554
  1.502  29.5176
  1.500  29.2596
  1.498  29.0728
  1.496  29.0861
  1.494  29.0649
  1.492  28.9203
  1.490  28.8132
  1.488  28.5657
  1.486  28.2086
  1.484  28.1677
  1.482  27.9751
  1.480  27.8001
  1.478  27.7380
  1.476  27.5957
  1.474  27.5018
  1.472  27.3472
  1.470  27.2946
  1.468  27.4014
  1.466  27.6089
  1.464  27.5738
  1.462  27.6578
  1.460  27.9731
  1.458  28.1779
  1.456  28.4511
  1.454  28.4523
  1.452  28.6122
  1.450  29.0192
  1.448  28.9563
  1.446  28.5976
  1.444  28.3990
  1.442  28.1239
  1.440  27.9182
  1.438  27.4434
  1.436  27.2066
  1.434  27.1988
  1.432  27.4746
  1.430  27.9961
  1.428  28.6368
  1.426  29.8354
  1.424  30.7879
  1.422  31.9724
  1.420  33.1645
  1.418  34.2009
  1.416  35.3182
  1.414  36.3856
  1.412  37.5401
  1.410  38.6515
  1.408  39.7628
  1.406  40.7983
  1.404  41.6589
  1.402  42.2801
  1.400  43.1372
  1.398  43.9582
  1.396  44.7427
  1.394  45.6913
  1.392  46.6437
  1.390  47.1193
  1.388  47.7036
  1.386  48.2684
  1.384  48.5414
  1.382  49.0066
  1.380  49.4381
  1.378  49.7092
  1.376  49.9090
  1.374  50.0660
  1.372  50.3365
  1.370  50.6677
  1.368  50.6507
  1.366  50.9273
  1.364  51.0291
  1.362  51.1222
  1.360  51.3924
  1.358  51.3616
  1.356  51.5029
  1.354  51.6636
  1.352  51.8969
  1.350  52.0059
  1.348  52.2526
  1.346  52.4688
  1.344  52.7169
  1.342  52.9406
  1.340  53.2921
  1.338  53.7843
  1.336  54.0060
  1.334  54.5097
  1.332  54.7231
  1.330  55.0489
  1.328  55.7526
  1.326  55.9137
  1.324  56.2652
  1.322  56.6733
  1.320  56.8689
  1.318  57.2726
  1.316  57.7899
  1.314  57.9216
  1.312  58.3036
  1.310  58.3667
  1.308  58.7625
  1.306  58.8910
  1.304  59.2049
  1.302  59.4432
  1.300  59.5413
  1.298  59.5728
  1.296  59.8955
  1.294  59.8881
  1.292  59.9918
  1.290  60.0124
  1.288  60.0171
  1.286  60.1009
  1.284  60.2331
  1.282  59.9923
  1.280  60.0423
  1.278  59.9102
  1.276  59.9173
  1.274  59.8760
  1.272  59.9498
  1.270  59.8686
  1.268  59.8458
  1.266  59.6758
  1.264  59.5693
  1.262  59.5964
  1.260  59.4292
  1.258  59.4765
  1.256  59.4319
  1.254  59.5030
  1.252  59.4383
  1.250  59.4410
  1.248  59.4338
  1.246  59.5603
  1.244  59.4513
  1.242  59.5900
  1.240  59.4763
  1.238  59.5432
  1.236  59.2961
  1.234  59.4800
  1.232  59.5391
  1.230  59.7932
  1.228  59.7216
  1.226  59.6084
  1.224  59.5506
  1.222  59.9081
  1.220  59.8869
  1.218  60.0824
  1.216  60.1573
  1.214  60.1464
  1.212  60.1783
  1.210  60.2030
  1.208  60.2090
  1.206  60.3855
  1.204  60.4248
  1.202  60.4888
  1.200  60.7970
  1.198  60.7708
  1.196  60.9901
  1.194  61.1330
  1.192  61.3858
  1.190  61.5611
  1.188  61.8943
  1.186  62.2650
  1.184  62.5904
  1.182  63.1204
  1.180  63.5124
  1.178  63.8220
  1.176  64.3234
  1.174  64.7117
  1.172  65.2273
  1.170  65.5792
  1.168  66.2461
  1.166  66.6447
  1.164  67.0731
  1.162  67.5932
  1.160  67.7011
  1.158  67.9867
  1.156  68.2653
  1.154  68.6433
  1.152  68.9399
  1.150  69.1405
  1.148  69.3728
  1.146  69.7391
  1.144  69.5914
  1.142  69.7774
  1.140  69.9449
  1.138  70.1401
  1.136  70.1257
  1.134  70.3121
  1.132  70.4099
  1.130  70.2907
  1.128  70.4294
  1.126  70.5661
  1.124  70.7135
  1.122  70.6190
  1.120  70.6879
  1.118  70.5764
  1.116  70.8806
  1.114  70.8693
  1.112  70.8520
  1.110  70.9631
  1.108  71.0801
  1.106  71.2145
  1.104  71.0587
  1.102  71.0275
  1.100  71.1612
  1.098  71.1756
  1.096  71.3242
  1.094  71.3141
  1.092  71.4305
  1.090  71.3796
  1.088  71.3771
  1.086  71.5159
  1.084  71.4535
  1.082  71.4489
  1.080  71.4032
  1.078  71.5402
  1.076  71.4356
  1.074  71.4518
  1.072  71.4727
  1.070  71.5041
  1.068  71.4363
  1.066  71.3673
  1.064  71.3221
  1.062  71.2930
  1.060  71.1611
  1.058  71.2252
  1.056  71.1510
  1.054  70.9824
  1.052  70.9553
  1.050  70.7895
  1.048  70.8007
  1.046  70.5728
  1.044  70.5909
  1.042  70.4581
  1.040  70.3607
  1.038  70.2032
  1.036  69.9568
  1.034  69.8748
  1.032  69.7313
  1.030  69.6699
  1.028  69.5835
  1.026  69.3244
  1.024  69.3000
  1.022  69.2609
  1.020  68.9632
  1.018  68.7626
  1.016  68.8047
  1.014  68.6082
  1.012  68.4617
  1.010  68.5092
  1.008  68.3285
  1.006  68.2624
  1.004  68.2188
  1.002  68.0217
  1.000  67.7962
  0.998  67.7575
  0.996  67.6042
  0.994  67.3780
  0.992  67.2298
  0.990  67.0399
  0.988  66.7099
  0.986  66.3892
  0.984  66.1684
  0.982  65.9962
  0.980  66.0042
  0.978  66.1858
  0.976  66.5749
  0.974  67.1411
  0.972  67.7603
  0.970  68.2596
  0.968  68.8669
  0.966  69.4044
  0.964  69.8644
  0.962  70.1081
  0.960  70.2719
  0.958  70.7673
  0.956  71.1166
  0.954  71.3016
  0.952  71.5279
  0.950  71.6202
  0.948  71.7033
  0.946  71.8825
  0.944  71.9930
  0.942  72.0680
  0.940  72.1568
  0.938  72.2974
  0.936  72.3465
  0.934  72.2608
  0.932  72.3743
  0.930  72.6406
  0.928  72.6677
  0.926  72.6826
  0.924  72.7654
  0.922  72.8134
  0.920  72.7919
  0.918  72.8153
  0.916  72.8660
  0.914  72.8129
  0.912  72.7640
  0.910  72.8349
  0.908  72.9037
  0.906  72.8465
  0.904  72.7578
  0.902  72.8923
  0.900  72.8575
  0.898  73.0226
  0.896  73.1862
  0.894  73.2426
  0.892  73.2111
  0.890  73.2261
  0.888  73.2871
  0.886  73.5146
  0.884  73.3878
  0.882  73.4745
  0.880  73.5671
  0.878  73.4594
  0.876  73.6516
  0.874  73.6931
  0.872  73.6936
  0.870  73.5542
  0.868  73.5824
  0.866  73.5401
  0.864  73.3198
  0.862  73.3029
  0.860  73.3538
  0.858  73.1269
  0.856  73.0745
  0.854  73.0489
  0.852  73.0493
  0.850  73.1188
  0.848  73.2115
  0.846  73.1975
  0.844  73.2570
  0.842  73.2421
  0.840  73.2590
  0.838  73.3111
  0.836  73.2938
  0.834  73.3160
  0.832  73.2740
  0.830  73.3238
  0.828  73.3129
  0.826  73.2569
  0.824  73.2784
  0.822  73.2966
  0.820  73.2639
  0.818  73.2347
  0.816  73.2819
  0.814  73.2886
  0.812  73.2995
  0.810  73.3003
  0.808  73.2369
  0.806  73.2018
  0.804  73.2336
  0.802  73.2054
  0.800  73.2410
  0.798  73.2147
  0.796  73.1690
  0.794  73.1788
  0.792  73.1865
  0.790  73.2102
  0.788  73.1499
  0.786  73.1780
  0.784  73.1404
  0.782  73.1640
  0.780  73.1422
  0.778  73.1033
  0.776  73.1273
  0.774  73.0750
  0.772  73.0876
  0.770  73.0826
  0.768  73.0472
  0.766  73.0389
  0.764  73.0581
  0.762  73.0169
  0.760  73.0105
  0.758  72.9957
  0.756  72.9841
  0.754  72.9572
  0.752  73.0012
  0.750  73.0314
  0.748  73.0724
  0.746  73.1144
  0.744  73.1819
  0.742  73.2438
  0.740  73.2566
  0.738  73.3142
  0.736  73.3305
  0.734  73.3685
  0.732  73.4101
  0.730  73.4024
  0.728  73.4461
  0.726  73.4280
  0.724  73.4567
  0.722  73.4666
  0.720  73.4909
  0.718  73.4677
  0.716  73.4524
  0.714  73.4920
  0.712  73.5344
  0.710  73.5004
  0.708  73.5231
  0.706  73.5030
  0.704  73.5277
  0.702  73.5259
  0.700  73.5208
  0.698  73.5377
  0.696  73.5675
  0.694  73.5759
  0.692  73.5502
  0.690  73.5632
  0.688  73.5876
  0.686  73.6019
  0.684  73.5998
  0.682  73.5895
  0.680  73.6139
  0.678  73.6249
  0.676  73.6186
  0.674  73.5995
  0.672  73.5992
  0.670  73.6343
  0.668  73.6061
  0.666  73.6203
  0.664  73.5831
  0.662  73.6281
  0.660  73.6382
  0.658  73.6458
  0.656  73.5986
  0.654  73.6040
  0.652  73.6114
  0.650  73.5730
  0.648  73.5975
  0.646  73.6153
  0.644  73.6080
  0.642  73.5997
  0.640  73.6115
  0.638  73.5968
  0.636  73.6111
  0.634  73.6147
  0.632  73.6082
  0.630  73.6174
  0.628  73.6271
  0.626  73.5860
  0.624  73.5841
  0.622  73.6180
  0.620  73.6207
  0.618  73.6342
  0.616  73.6296
  0.614  73.6244
  0.612  73.6523
  0.610  73.6522
  0.608  73.6286
  0.606  73.6404
  0.604  73.6759
  0.602  73.6846
  0.600  73.6788
  0.598  73.7057
  0.596  73.6999
  0.594  73.7135
  0.592  73.7057
  0.590  73.7216
  0.588  73.7191
  0.586  73.7044
  0.584  73.6737
  0.582  73.7170
  0.580  73.6732
  0.578  73.7025
  0.576  73.7052
  0.574  73.7133
  0.572  73.6968
  0.570  73.6851
  0.568  73.6690
  0.566  73.6755
  0.564  73.6827
  0.562  73.6650
  0.560  73.6605
  0.558  73.6518
  0.556  73.6175
  0.554  73.6442
  0.552  73.6168
  0.550  73.6088
  0.548  73.5536
  0.546  73.5602
  0.544  73.5693
  0.542  73.5677
  0.540  73.5249
  0.538  73.5197
  0.536  73.4905
  0.534  73.5074
  0.532  73.5082
  0.530  73.5125
  0.528  73.4770
  0.526  73.4660
  0.524  73.4349
  0.522  73.4599
  0.520  73.4429
  0.518  73.4488
  0.516  73.4359
  0.514  73.4495
  0.512  73.4373
  0.510  73.4321
  0.508  73.4255
  0.506  73.4384
  0.504  73.4501
  0.502  73.4716
  0.500  73.4439
  0.498  73.4214
  0.496  73.3902
  0.494  73.3553
  0.492  73.3450
  0.490  73.3209
  0.488  73.2739
  0.486  73.2242
  0.484  73.1733
  0.482  73.1587
  0.480  73.1378
  0.478  73.1371
  0.476  73.1092
  0.474  73.0914
  0.472  73.0962
  0.470  73.0826
  0.468  73.0778
  0.466  73.0560
  0.464  73.0671
  0.462  73.0538
  0.460  73.0255
  0.458  73.0080
  0.456  72.9861
  0.454  72.9928
  0.452  72.9683
  0.450  72.9424
  0.448  72.9359
  0.446  72.8699
  0.444  72.8315
  0.442  72.7830
  0.440  72.7827
  0.438  72.7531
  0.436  72.7411
  0.434  72.7089
  0.432  72.6721
  0.430  72.6632
  0.428  72.6102
  0.426  72.6089
  0.424  72.5762
  0.422  72.5315
  0.420  72.5122
  0.418  72.4931
  0.416  72.4922
  0.414  72.4590
  0.412  72.4430
  0.410  72.4160
  0.408  72.3885
  0.406  72.3825
  0.404  72.3429
  0.402  72.3341
  0.400  72.3034
