Name: Carnallite KMgCl3 * 6H2O
Type: Mineral
Class: Chloride
Subclass: None
Particle Size: Unsieved coarse powder
Sample No.: NMNH 98011
Owner: Smithsonian Institute, National Museum of Nat. History
Wavelength range: 0.40 - 14.05 um
Origin: Barcelona, Spain

Description: Carnallite from Barcelona, Spain - NMNH 98011





Measurement: Directional Hemispherical Reflectance
First Column: X
Second Column: Y
X Units: Wavelength (micrometers)
Y Units: Reflectance (percent)
First X Value: 14.05105
Last X Value: 0.40000
Number of X Values: 2756
Additional Information: None

 14.051   2.1115
 14.013   2.1939
 13.975   2.3587
 13.938   2.2969
 13.900   2.2866
 13.863   2.3175
 13.826   2.4514
 13.790   2.3381
 13.753   2.4102
 13.717   2.3587
 13.680   2.3999
 13.644   2.3896
 13.609   2.4514
 13.573   2.3587
 13.538   2.4205
 13.502   2.5132
 13.467   2.5647
 13.432   2.4514
 13.398   2.5235
 13.363   2.5132
 13.329   2.5029
 13.295   2.4411
 13.261   2.5544
 13.227   2.5338
 13.193   2.5647
 13.160   2.5338
 13.126   2.6059
 13.093   2.6368
 13.060   2.6883
 13.027   2.7089
 12.995   2.7707
 12.962   2.7089
 12.930   2.7398
 12.898   2.7192
 12.866   2.7810
 12.834   2.7707
 12.802   2.8016
 12.771   2.7604
 12.739   2.8016
 12.708   2.7398
 12.677   2.7604
 12.646   2.8119
 12.616   2.9149
 12.585   2.8634
 12.554   2.8634
 12.524   2.8016
 12.494   2.8325
 12.464   2.8119
 12.434   2.8325
 12.404   2.7810
 12.375   2.8119
 12.345   2.7707
 12.316   2.8119
 12.287   2.8222
 12.258   2.8737
 12.229   2.8325
 12.200   2.8634
 12.171   2.8737
 12.143   2.9252
 12.115   2.8428
 12.086   2.8634
 12.058   2.8634
 12.030   2.8943
 12.002   2.8634
 11.975   2.9355
 11.947   2.9149
 11.920   2.9458
 11.892   2.9355
 11.865   2.9767
 11.838   2.9870
 11.811   3.0488
 11.784   3.0385
 11.757   3.0591
 11.731   2.9973
 11.704   3.0488
 11.678   3.0179
 11.652   3.0076
 11.626   2.9870
 11.600   3.0694
 11.574   3.0591
 11.548   3.1003
 11.522   3.0591
 11.497   3.0797
 11.471   3.0694
 11.446   3.1106
 11.421   3.0488
 11.396   3.0385
 11.371   2.9458
 11.346   2.9458
 11.321   2.9046
 11.297   2.9355
 11.272   2.8737
 11.248   2.9458
 11.223   2.9870
 11.199   3.0488
 11.175   3.0282
 11.151   3.0385
 11.127   2.9767
 11.103   3.0282
 11.079   2.9767
 11.056   2.9664
 11.032   2.9252
 11.009   2.9046
 10.985   2.8531
 10.962   2.9149
 10.939   2.8531
 10.916   2.8943
 10.893   2.8737
 10.870   2.8428
 10.848   2.8222
 10.825   2.8325
 10.802   2.8016
 10.780   2.8531
 10.758   2.8222
 10.735   2.8016
 10.713   2.7810
 10.691   2.8016
 10.669   2.7604
 10.647   2.8325
 10.625   2.7913
 10.604   2.7604
 10.582   2.7295
 10.560   2.7501
 10.539   2.6986
 10.518   2.7501
 10.496   2.7604
 10.475   2.7398
 10.454   2.7192
 10.433   2.7707
 10.412   2.7295
 10.391   2.7604
 10.370   2.7398
 10.350   2.7398
 10.329   2.6883
 10.309   2.6986
 10.288   2.6677
 10.268   2.6780
 10.247   2.6574
 10.227   2.6883
 10.207   2.6471
 10.187   2.6471
 10.167   2.6162
 10.147   2.6471
 10.127   2.6471
 10.108   2.6368
 10.088   2.6265
 10.068   2.6986
 10.049   2.6883
 10.029   2.6986
 10.010   2.6883
  9.991   2.6883
  9.972   2.6265
  9.952   2.6574
  9.933   2.5956
  9.914   2.6162
  9.895   2.6265
  9.877   2.6574
  9.858   2.6059
  9.839   2.6162
  9.821   2.6780
  9.802   2.7192
  9.783   2.6677
  9.765   2.6883
  9.747   2.6883
  9.728   2.7295
  9.710   2.7089
  9.692   2.7604
  9.674   2.7810
  9.656   2.7707
  9.638   2.7707
  9.620   2.8531
  9.602   2.8531
  9.585   2.8634
  9.567   2.8016
  9.549   2.8428
  9.532   2.8428
  9.514   2.8428
  9.497   2.7810
  9.479   2.8222
  9.462   2.8016
  9.445   2.8016
  9.428   2.8016
  9.411   2.8634
  9.394   2.8840
  9.377   2.9561
  9.360   2.9561
  9.343   2.9973
  9.326   2.9870
  9.309   3.0282
  9.293   3.0179
  9.276   3.0591
  9.259   3.0797
  9.243   3.1209
  9.226   3.1106
  9.210   3.2136
  9.194   3.1621
  9.178   3.1312
  9.161   3.0900
  9.145   3.1106
  9.129   3.1415
  9.113   3.2239
  9.097   3.1827
  9.081   3.2033
  9.065   3.2857
  9.049   3.3475
  9.034   3.2445
  9.018   3.2445
  9.002   3.2651
  8.987   3.3578
  8.971   3.3269
  8.956   3.3887
  8.940   3.4711
  8.925   3.5329
  8.909   3.5020
  8.894   3.5844
  8.879   3.6256
  8.864   3.6874
  8.849   3.7080
  8.834   3.7595
  8.819   3.7492
  8.804   3.8213
  8.789   3.9140
  8.774   3.9861
  8.759   3.9346
  8.744   3.9655
  8.730   3.9449
  8.715   4.0170
  8.700   4.1097
  8.686   4.2230
  8.671   4.2539
  8.657   4.2539
  8.642   4.1612
  8.628   4.1303
  8.614   4.1406
  8.599   4.1715
  8.585   4.1612
  8.571   4.2333
  8.557   4.3260
  8.543   4.3775
  8.529   4.3569
  8.515   4.3775
  8.501   4.3569
  8.487   4.4084
  8.473   4.4496
  8.459   4.4908
  8.445   4.5217
  8.431   4.6350
  8.418   4.6453
  8.404   4.6865
  8.391   4.7380
  8.377   4.8101
  8.363   4.8925
  8.350   5.0161
  8.337   5.0367
  8.323   5.0985
  8.310   5.1500
  8.297   5.1706
  8.283   5.1191
  8.270   5.0882
  8.257   5.0470
  8.244   5.0161
  8.231   4.9646
  8.218   4.9852
  8.205   4.9543
  8.192   4.9440
  8.179   4.9440
  8.166   4.9852
  8.153   4.9646
  8.140   4.9646
  8.128   4.9749
  8.115   5.0161
  8.102   5.0367
  8.090   5.0470
  8.077   5.0367
  8.064   5.0264
  8.052   4.9440
  8.039   4.9543
  8.027   4.9337
  8.015   4.9337
  8.002   4.9646
  7.990   4.9852
  7.978   4.9440
  7.965   4.9440
  7.953   4.9543
  7.941   4.9955
  7.929   5.0470
  7.917   5.0573
  7.905   5.0161
  7.893   5.0470
  7.881   5.0161
  7.869   5.0367
  7.857   5.0264
  7.845   5.0779
  7.833   5.1294
  7.821   5.1500
  7.809   5.1294
  7.798   5.1809
  7.786   5.1912
  7.774   5.2530
  7.763   5.2633
  7.751   5.3148
  7.739   5.3560
  7.728   5.3972
  7.716   5.4281
  7.705   5.4796
  7.694   5.5208
  7.682   5.6547
  7.671   5.6753
  7.659   5.6856
  7.648   5.6959
  7.637   5.7474
  7.626   5.8195
  7.614   5.9225
  7.603   5.9431
  7.592   5.9740
  7.581   5.9740
  7.570   5.9740
  7.559   6.0049
  7.548   6.1079
  7.537   6.1388
  7.526   6.1800
  7.515   6.2109
  7.504   6.2933
  7.493   6.3345
  7.483   6.3345
  7.472   6.3345
  7.461   6.3036
  7.450   6.2830
  7.440   6.4272
  7.429   6.5199
  7.418   6.5920
  7.408   6.5817
  7.397   6.6229
  7.387   6.6538
  7.376   6.7053
  7.366   6.7774
  7.355   6.8083
  7.345   6.7156
  7.334   6.6332
  7.324   6.7053
  7.314   6.9216
  7.303   6.9319
  7.293   6.9319
  7.283   6.8907
  7.273   6.7774
  7.263   6.7671
  7.252   6.9113
  7.242   6.9834
  7.232   6.9834
  7.222   6.9113
  7.212   6.8392
  7.202   6.5817
  7.192   6.5302
  7.182   6.5405
  7.172   6.3448
  7.162   6.0255
  7.152   5.9431
  7.143   5.7886
  7.133   5.6753
  7.123   5.5723
  7.113   5.3663
  7.103   5.2324
  7.094   5.1912
  7.084   5.0470
  7.074   5.0058
  7.065   4.9749
  7.055   4.9234
  7.046   4.7277
  7.036   4.7380
  7.026   5.0985
  7.017   5.3148
  7.007   5.5517
  6.998   5.7680
  6.989   5.7783
  6.979   5.8916
  6.970   5.9740
  6.960   5.7577
  6.951   5.5414
  6.942   5.8607
  6.932   6.0049
  6.923   6.0461
  6.914   5.9843
  6.905   5.8504
  6.896   5.8092
  6.886   5.9019
  6.877   5.8710
  6.868   5.6959
  6.859   5.1603
  6.850   5.1603
  6.841   5.6547
  6.832   5.8607
  6.823   5.6753
  6.814   5.7268
  6.805   5.9019
  6.796   5.8092
  6.787   5.4178
  6.778   5.3663
  6.770   5.5723
  6.761   5.7989
  6.752   5.9431
  6.743   5.9328
  6.734   5.9843
  6.726   5.9534
  6.717   5.7783
  6.708   5.6650
  6.700   5.7886
  6.691   6.0976
  6.682   6.0152
  6.674   5.8607
  6.665   5.9946
  6.657   6.2830
  6.648   6.3963
  6.640   5.9740
  6.631   5.3972
  6.623   5.7371
  6.614   6.2727
  6.606   6.4787
  6.597   6.5302
  6.589   6.3757
  6.581   6.3551
  6.572   6.1800
  6.564   5.9843
  6.556   6.3448
  6.547   6.4684
  6.539   6.6023
  6.531   6.7877
  6.523   6.6950
  6.514   6.3860
  6.506   6.5920
  6.498   6.4169
  6.490   5.6959
  6.482   5.6135
  6.474   6.0152
  6.466   6.2830
  6.458   6.5611
  6.450   6.5302
  6.442   6.4581
  6.434   6.3345
  6.426   6.1182
  6.418   5.7886
  6.410   5.0882
  6.402   5.4384
  6.394   6.1491
  6.386   6.1697
  6.378   6.1182
  6.370   5.9328
  6.363   5.7577
  6.355   5.9534
  6.347   5.8092
  6.339   5.3354
  6.332   5.4281
  6.324   5.6135
  6.316   5.5517
  6.308   5.4281
  6.301   5.2736
  6.293   5.1603
  6.286   5.0676
  6.278   4.9646
  6.270   4.7689
  6.263   4.6041
  6.255   4.5114
  6.248   4.3981
  6.240   4.2848
  6.233   4.1715
  6.225   4.0273
  6.218   3.8625
  6.210   3.6874
  6.203   3.5535
  6.195   3.4299
  6.188   3.1827
  6.181   2.8943
  6.173   2.8634
  6.166   2.8634
  6.159   2.6368
  6.151   2.4308
  6.144   2.3793
  6.137   2.3278
  6.130   2.2763
  6.122   2.2660
  6.115   2.1733
  6.108   2.0497
  6.101   2.1424
  6.094   2.1218
  6.086   1.9982
  6.079   1.8643
  6.072   1.6995
  6.065   1.6686
  6.058   1.7819
  6.051   1.7510
  6.044   1.6377
  6.037   1.9158
  6.030   2.2660
  6.023   2.4926
  6.016   2.6059
  6.009   2.7192
  6.002   2.9561
  5.995   3.1003
  5.988   3.0282
  5.981   3.1106
  5.974   3.3475
  5.967   3.3887
  5.960   3.4814
  5.954   3.7080
  5.947   3.7595
  5.940   3.6771
  5.933   3.4608
  5.926   3.7904
  5.920   4.1612
  5.913   4.3157
  5.906   4.4908
  5.899   4.5320
  5.893   4.3569
  5.886   4.4908
  5.879   4.3981
  5.873   4.6659
  5.866   5.2839
  5.859   5.4178
  5.853   5.6856
  5.846   6.0976
  5.840   6.3963
  5.833   6.4684
  5.827   6.3448
  5.820   6.2212
  5.813   6.4787
  5.807   7.1688
  5.800   7.5087
  5.794   7.6941
  5.788   7.8383
  5.781   7.8795
  5.775   7.8177
  5.768   7.6220
  5.762   7.3233
  5.755   7.9722
  5.749   8.3533
  5.743   8.2400
  5.736   8.4563
  5.730   8.6314
  5.724   8.7344
  5.717   8.6520
  5.711   8.5284
  5.705   8.6726
  5.698   9.2185
  5.692   9.3833
  5.686   9.3421
  5.680   9.5069
  5.674   9.4142
  5.667   9.5996
  5.661   9.9395
  5.655   9.8468
  5.649   9.7129
  5.643   9.4863
  5.637   9.3215
  5.630   9.8674
  5.624  10.2485
  5.618  10.3515
  5.612  10.2279
  5.606  10.3309
  5.600  10.3412
  5.594  10.4133
  5.588  10.5369
  5.582  10.3000
  5.576   9.8880
  5.570  10.0734
  5.564  10.4030
  5.558  10.3927
  5.552  10.1970
  5.546  10.1970
  5.540  10.3618
  5.534  10.4236
  5.528  10.3618
  5.523  10.1867
  5.517  10.0631
  5.511  10.1146
  5.505  10.0734
  5.499   9.9292
  5.493   9.8571
  5.487   9.7438
  5.482   9.5172
  5.476   9.1773
  5.470   9.0743
  5.464   8.8580
  5.459   8.6829
  5.453   8.8374
  5.447   8.8065
  5.441   8.6726
  5.436   8.5387
  5.430   8.4151
  5.424   8.1267
  5.419   7.7250
  5.413   7.7765
  5.407   7.8692
  5.402   7.8177
  5.396   7.7559
  5.390   7.6529
  5.385   7.5705
  5.379   7.4984
  5.374   7.4778
  5.368   7.4675
  5.363   7.5087
  5.357   7.5087
  5.352   7.4057
  5.346   7.4057
  5.341   7.7662
  5.335   8.0752
  5.330   8.2709
  5.324   8.5078
  5.319   8.7859
  5.313   9.0434
  5.308   9.2803
  5.302   9.5378
  5.297   9.7747
  5.291   9.8777
  5.286  10.0631
  5.281  10.4030
  5.275  10.5781
  5.270  10.7944
  5.265  11.0725
  5.259  11.2991
  5.254  11.4536
  5.249  11.5875
  5.243  11.7214
  5.238  11.8141
  5.233  11.8759
  5.227  12.0407
  5.222  12.1746
  5.217  12.1952
  5.212  12.0407
  5.206  12.1128
  5.201  12.2776
  5.196  12.2570
  5.191  12.3497
  5.186  12.3909
  5.180  12.4115
  5.175  12.4115
  5.170  12.4012
  5.165  12.3806
  5.160  12.3394
  5.155  12.2776
  5.150  12.1437
  5.145  11.9789
  5.139  12.0407
  5.134  12.1334
  5.129  12.1643
  5.124  12.1540
  5.119  12.1437
  5.114  12.1231
  5.109  12.0922
  5.104  12.0716
  5.099  12.0716
  5.094  12.0510
  5.089  12.0510
  5.084  11.9789
  5.079  11.8759
  5.074  11.9068
  5.069  11.9789
  5.064  11.9789
  5.059  11.9583
  5.054  11.9068
  5.049  11.8862
  5.044  11.8141
  5.040  11.7626
  5.035  11.7008
  5.030  11.6081
  5.025  11.4948
  5.020  11.3712
  5.015  11.2991
  5.010  11.3403
  5.005  11.2785
  5.001  11.1961
  4.996  11.1343
  4.991  11.0828
  4.986  11.0107
  4.981  10.9386
  4.977  10.8974
  4.972  10.8562
  4.967  10.7738
  4.962  10.6811
  4.958  10.5575
  4.953  10.4751
  4.948  10.4339
  4.943  10.3618
  4.939  10.2794
  4.934  10.1970
  4.929  10.1043
  4.925   9.9807
  4.920   9.8777
  4.915   9.7953
  4.911   9.7026
  4.906   9.5790
  4.901   9.4554
  4.897   9.3524
  4.892   9.2597
  4.888   9.2082
  4.883   9.1258
  4.878   9.0022
  4.874   8.8786
  4.869   8.8065
  4.865   8.7447
  4.860   8.6623
  4.856   8.5696
  4.851   8.5181
  4.846   8.4666
  4.842   8.4151
  4.837   8.3842
  4.833   8.3739
  4.828   8.3533
  4.824   8.3121
  4.819   8.2812
  4.815   8.2709
  4.810   8.2915
  4.806   8.2812
  4.802   8.3018
  4.797   8.3327
  4.793   8.3327
  4.788   8.3018
  4.784   8.2812
  4.779   8.3018
  4.775   8.3121
  4.771   8.3018
  4.766   8.2400
  4.762   8.1782
  4.758   8.2194
  4.753   8.2194
  4.749   8.1473
  4.744   8.0958
  4.740   8.0855
  4.736   8.0031
  4.731   7.9310
  4.727   7.8898
  4.723   7.7868
  4.719   7.6632
  4.714   7.5808
  4.710   7.4778
  4.706   7.3336
  4.701   7.1997
  4.697   7.0967
  4.693   6.9834
  4.689   6.8907
  4.684   6.8804
  4.680   6.8804
  4.676   6.8392
  4.672   6.7980
  4.668   6.7465
  4.663   6.6950
  4.659   6.6744
  4.655   6.6641
  4.651   6.6847
  4.647   6.6744
  4.643   6.6435
  4.638   6.6332
  4.634   6.6229
  4.630   6.6126
  4.626   6.5714
  4.622   6.5199
  4.618   6.4787
  4.614   6.4684
  4.610   6.4375
  4.605   6.4066
  4.601   6.3757
  4.597   6.3345
  4.593   6.2727
  4.589   6.2212
  4.585   6.2006
  4.581   6.1388
  4.577   6.0770
  4.573   6.0358
  4.569   6.0358
  4.565   6.0152
  4.561   5.9534
  4.557   5.8916
  4.553   5.8195
  4.549   5.7886
  4.545   5.7680
  4.541   5.6959
  4.537   5.6341
  4.533   5.6135
  4.529   5.5723
  4.525   5.5002
  4.521   5.4384
  4.517   5.3972
  4.513   5.3354
  4.509   5.2839
  4.505   5.2324
  4.502   5.2015
  4.498   5.1809
  4.494   5.1397
  4.490   5.0882
  4.486   5.0573
  4.482   5.0161
  4.478   4.9749
  4.474   4.9028
  4.470   4.8204
  4.467   4.7998
  4.463   4.8307
  4.459   4.7895
  4.455   4.7277
  4.451   4.6968
  4.447   4.7174
  4.444   4.6762
  4.440   4.6350
  4.436   4.6247
  4.432   4.6556
  4.428   4.6453
  4.425   4.6350
  4.421   4.6350
  4.417   4.6556
  4.413   4.6556
  4.410   4.6247
  4.406   4.6247
  4.402   4.6659
  4.398   4.6762
  4.395   4.6453
  4.391   4.6453
  4.387   4.7071
  4.384   4.7380
  4.380   4.7483
  4.376   4.7895
  4.372   4.8410
  4.369   4.8616
  4.365   4.9440
  4.361   4.9955
  4.358   5.0882
  4.354   5.1500
  4.350   5.1500
  4.347   5.1809
  4.343   5.2530
  4.340   5.3251
  4.336   5.3972
  4.332   5.5208
  4.329   5.6444
  4.325   5.7680
  4.321   5.9019
  4.318   6.0255
  4.314   6.1903
  4.311   6.3654
  4.307   6.5302
  4.304   6.6332
  4.300   6.7362
  4.296   6.9216
  4.293   7.1585
  4.289   7.3748
  4.286   7.6014
  4.282   7.8177
  4.279   8.0237
  4.275   8.2297
  4.272   8.4254
  4.268   8.6314
  4.265   8.8683
  4.261   9.0331
  4.258   9.1773
  4.254   9.3730
  4.251   9.7129
  4.247  10.0940
  4.244  10.4751
  4.240  10.7841
  4.237  11.1034
  4.233  11.3918
  4.230  11.6287
  4.226  11.8553
  4.223  12.0510
  4.219  12.1643
  4.216  12.2364
  4.213  12.3291
  4.209  12.4424
  4.206  12.5145
  4.202  12.6175
  4.199  12.7720
  4.196  12.9162
  4.192  13.0604
  4.189  13.2046
  4.185  13.3797
  4.182  13.5857
  4.179  13.7505
  4.175  13.9359
  4.172  14.1316
  4.169  14.3273
  4.165  14.4818
  4.162  14.6878
  4.159  14.8629
  4.155  15.0174
  4.152  15.1307
  4.149  15.2543
  4.145  15.3985
  4.142  15.5530
  4.139  15.7075
  4.135  15.8311
  4.132  15.9650
  4.129  16.1195
  4.126  16.2431
  4.122  16.3667
  4.119  16.5315
  4.116  16.6963
  4.112  16.7890
  4.109  16.9126
  4.106  17.0465
  4.103  17.1907
  4.099  17.2731
  4.096  17.3864
  4.093  17.4688
  4.090  17.5924
  4.086  17.7881
  4.083  17.9323
  4.080  17.9838
  4.077  18.0971
  4.074  18.1898
  4.070  18.2928
  4.067  18.4267
  4.064  18.5812
  4.061  18.6842
  4.058  18.7872
  4.055  18.8696
  4.051  18.9623
  4.048  19.0344
  4.045  19.1374
  4.042  19.2301
  4.039  19.3228
  4.036  19.3846
  4.032  19.4361
  4.029  19.5082
  4.026  19.6215
  4.023  19.6627
  4.020  19.7245
  4.017  19.8481
  4.014  19.9511
  4.011  20.0129
  4.008  20.0026
  4.004  19.9923
  4.001  20.0438
  3.998  19.9717
  3.995  19.9305
  3.992  19.8893
  3.989  19.8584
  3.986  19.7348
  3.983  19.6009
  3.980  19.4258
  3.977  19.2301
  3.974  19.0241
  3.971  18.7872
  3.968  18.4782
  3.965  18.1589
  3.962  17.8705
  3.959  17.7160
  3.956  17.5924
  3.953  17.5100
  3.950  17.4585
  3.947  17.4688
  3.944  17.4894
  3.941  17.5924
  3.938  17.7469
  3.935  17.9220
  3.932  18.0559
  3.929  18.2413
  3.926  18.3752
  3.923  18.4782
  3.920  18.6430
  3.917  18.8490
  3.914  18.9829
  3.911  19.0962
  3.908  19.1992
  3.905  19.3846
  3.902  19.5082
  3.899  19.5906
  3.896  19.7142
  3.893  19.8790
  3.890  20.0541
  3.887  20.2395
  3.884  20.3837
  3.882  20.6000
  3.879  20.7442
  3.876  20.9090
  3.873  21.0017
  3.870  21.0223
  3.867  21.1150
  3.864  21.2283
  3.861  21.2180
  3.858  21.2592
  3.856  21.2592
  3.853  21.2386
  3.850  21.2489
  3.847  21.2901
  3.844  21.3004
  3.841  21.3416
  3.838  21.3107
  3.836  21.3622
  3.833  21.4137
  3.830  21.4549
  3.827  21.4652
  3.824  21.4961
  3.822  21.4858
  3.819  21.4858
  3.816  21.4343
  3.813  21.4652
  3.810  21.4652
  3.807  21.4137
  3.805  21.3828
  3.802  21.3828
  3.799  21.4137
  3.796  21.4240
  3.794  21.3416
  3.791  21.3313
  3.788  21.3725
  3.785  21.4240
  3.782  21.3828
  3.780  21.3107
  3.777  21.2901
  3.774  21.3622
  3.771  21.3931
  3.769  21.4549
  3.766  21.5167
  3.763  21.5476
  3.761  21.4961
  3.758  21.5167
  3.755  21.5579
  3.752  21.5682
  3.750  21.5476
  3.747  21.5373
  3.744  21.5476
  3.742  21.5579
  3.739  21.4961
  3.736  21.4652
  3.733  21.4652
  3.731  21.4446
  3.728  21.4240
  3.725  21.3931
  3.723  21.3828
  3.720  21.3210
  3.717  21.2283
  3.715  21.2077
  3.712  21.1768
  3.709  21.1253
  3.707  21.0944
  3.704  21.0326
  3.702  20.9090
  3.699  20.8266
  3.696  20.7442
  3.694  20.6412
  3.691  20.5279
  3.688  20.5176
  3.686  20.4146
  3.683  20.3013
  3.680  20.1880
  3.678  20.0953
  3.675  20.0747
  3.673  20.0438
  3.670  19.8893
  3.667  19.7657
  3.665  19.6524
  3.662  19.6009
  3.660  19.4567
  3.657  19.2919
  3.655  19.1683
  3.652  19.0653
  3.649  19.0035
  3.647  18.9417
  3.644  18.8078
  3.642  18.7460
  3.639  18.6842
  3.637  18.6121
  3.634  18.4679
  3.632  18.3443
  3.629  18.2516
  3.626  18.1280
  3.624  18.0147
  3.621  17.9323
  3.619  17.8705
  3.616  17.8396
  3.614  17.7469
  3.611  17.6748
  3.609  17.5512
  3.606  17.4173
  3.604  17.2525
  3.601  17.1083
  3.599  17.0671
  3.596  17.0362
  3.594  16.9126
  3.591  16.8096
  3.589  16.7272
  3.586  16.6036
  3.584  16.4594
  3.581  16.4079
  3.579  16.3461
  3.576  16.2740
  3.574  16.1607
  3.571  16.0577
  3.569  15.9959
  3.567  15.9753
  3.564  15.8105
  3.562  15.6560
  3.559  15.5530
  3.557  15.5118
  3.554  15.4294
  3.552  15.3676
  3.549  15.2955
  3.547  15.1822
  3.545  15.0895
  3.542  15.0380
  3.540  14.8629
  3.537  14.7805
  3.535  14.7496
  3.533  14.6981
  3.530  14.5951
  3.528  14.4715
  3.525  14.3376
  3.523  14.2346
  3.521  14.1522
  3.518  14.1110
  3.516  14.0904
  3.513  14.0183
  3.511  13.8432
  3.509  13.6887
  3.506  13.6269
  3.504  13.5754
  3.502  13.4415
  3.499  13.3488
  3.497  13.2870
  3.494  13.1840
  3.492  13.0707
  3.490  12.9574
  3.487  12.8647
  3.485  12.7308
  3.483  12.5660
  3.480  12.4321
  3.478  12.3600
  3.476  12.2982
  3.473  12.1849
  3.471  12.1231
  3.469  12.0098
  3.466  11.9068
  3.464  11.8141
  3.462  11.7111
  3.460  11.6081
  3.457  11.5463
  3.455  11.4330
  3.453  11.3094
  3.450  11.2579
  3.448  11.2064
  3.446  11.0931
  3.443  11.0004
  3.441  10.8459
  3.439  10.7429
  3.437  10.6914
  3.434  10.6811
  3.432  10.5369
  3.430  10.4339
  3.428  10.3309
  3.425  10.2691
  3.423  10.2176
  3.421  10.1867
  3.418  10.0734
  3.416  10.0219
  3.414   9.9704
  3.412   9.8365
  3.409   9.7026
  3.407   9.6820
  3.405   9.6305
  3.403   9.5687
  3.401   9.5172
  3.398   9.4657
  3.396   9.3730
  3.394   9.3318
  3.392   9.2391
  3.389   9.1361
  3.387   9.0743
  3.385   9.0125
  3.383   8.9095
  3.381   8.8580
  3.378   8.8065
  3.376   8.7447
  3.374   8.6623
  3.372   8.6211
  3.370   8.4872
  3.367   8.3842
  3.365   8.3018
  3.363   8.2812
  3.361   8.2091
  3.359   8.1267
  3.357   8.0649
  3.354   7.9825
  3.352   7.8383
  3.350   7.7868
  3.348   7.6838
  3.346   7.6529
  3.344   7.5396
  3.341   7.4057
  3.339   7.3336
  3.337   7.2924
  3.335   7.1894
  3.333   7.0864
  3.331   7.0555
  3.329   7.0040
  3.326   6.9113
  3.324   6.8598
  3.322   6.7671
  3.320   6.7671
  3.318   6.6744
  3.316   6.5714
  3.314   6.4375
  3.312   6.3139
  3.309   6.2624
  3.307   6.3036
  3.305   6.2830
  3.303   6.1903
  3.301   6.1079
  3.299   6.0667
  3.297   6.0152
  3.295   5.9946
  3.293   5.8813
  3.291   5.8504
  3.288   5.8710
  3.286   5.8195
  3.284   5.7268
  3.282   5.6959
  3.280   5.6238
  3.278   5.5620
  3.276   5.4796
  3.274   5.4281
  3.272   5.3972
  3.270   5.3457
  3.268   5.2427
  3.266   5.1603
  3.264   5.1191
  3.262   5.0882
  3.259   5.0264
  3.257   5.0264
  3.255   5.0058
  3.253   4.9543
  3.251   4.8719
  3.249   4.8410
  3.247   4.7483
  3.245   4.6350
  3.243   4.5320
  3.241   4.5011
  3.239   4.4805
  3.237   4.4393
  3.235   4.4187
  3.233   4.4393
  3.231   4.4084
  3.229   4.3981
  3.227   4.3157
  3.225   4.1818
  3.223   4.0685
  3.221   4.1097
  3.219   4.0994
  3.217   4.0376
  3.215   3.9449
  3.213   3.9552
  3.211   3.9758
  3.209   3.9758
  3.207   3.8522
  3.205   3.7595
  3.203   3.7080
  3.201   3.7183
  3.199   3.7080
  3.197   3.5741
  3.195   3.5020
  3.193   3.5844
  3.191   3.5535
  3.189   3.5123
  3.187   3.5020
  3.185   3.4711
  3.183   3.4711
  3.182   3.4608
  3.180   3.3784
  3.178   3.3269
  3.176   3.2548
  3.174   3.2651
  3.172   3.1930
  3.170   3.1415
  3.168   3.1518
  3.166   3.1621
  3.164   3.1312
  3.162   3.1312
  3.160   3.0385
  3.158   3.0076
  3.156   2.9973
  3.154   2.9664
  3.152   2.9664
  3.151   3.0076
  3.149   2.9561
  3.147   2.8737
  3.145   2.8737
  3.143   2.8634
  3.141   2.8325
  3.139   2.8016
  3.137   2.7295
  3.135   2.7707
  3.133   2.7913
  3.132   2.7707
  3.130   2.6986
  3.128   2.6368
  3.126   2.6059
  3.124   2.6265
  3.122   2.5956
  3.120   2.5647
  3.118   2.5029
  3.117   2.5441
  3.115   2.5750
  3.113   2.5956
  3.111   2.5029
  3.109   2.4617
  3.107   2.4617
  3.105   2.4720
  3.103   2.4514
  3.102   2.4411
  3.100   2.3484
  3.098   2.3381
  3.096   2.3278
  3.094   2.2660
  3.092   2.2145
  3.091   2.2763
  3.089   2.2557
  3.087   2.2145
  3.085   2.1939
  3.083   2.2042
  3.081   2.1527
  3.079   2.1630
  3.078   2.2248
  3.076   2.2557
  3.074   2.2042
  3.072   2.1733
  3.070   2.1733
  3.069   2.2660
  3.067   2.2557
  3.065   2.2351
  3.063   2.1939
  3.061   2.2351
  3.060   2.2969
  3.058   2.3175
  3.056   2.2660
  3.054   2.2763
  3.052   2.2763
  3.051   2.2660
  3.049   2.2557
  3.047   2.3175
  3.045   2.3484
  3.043   2.3381
  3.042   2.2969
  3.040   2.3175
  3.038   2.2969
  3.036   2.2660
  3.034   2.2557
  3.033   2.3072
  3.031   2.2145
  3.029   2.2351
  3.027   2.3278
  3.026   2.2969
  3.024   2.2763
  3.022   2.3072
  3.020   2.2763
  3.019   2.3072
  3.017   2.3690
  3.015   2.3278
  3.013   2.2145
  3.012   2.2351
  3.010   2.2454
  3.008   2.3175
  3.006   2.3278
  3.005   2.3896
  3.003   2.3999
  3.001   2.3999
  2.999   2.3690
  2.998   2.4205
  2.996   2.3793
  2.994   2.2969
  2.992   2.2248
  2.991   2.2660
  2.989   2.2454
  2.987   2.3072
  2.986   2.3484
  2.984   2.3793
  2.982   2.3381
  2.980   2.3484
  2.979   2.3690
  2.977   2.4102
  2.975   2.3690
  2.974   2.3793
  2.972   2.3690
  2.970   2.4102
  2.968   2.3690
  2.967   2.3690
  2.965   2.4514
  2.963   2.5029
  2.962   2.5029
  2.960   2.5853
  2.958   2.6574
  2.957   2.6265
  2.955   2.6162
  2.953   2.7089
  2.952   2.6677
  2.950   2.6574
  2.948   2.6368
  2.947   2.6368
  2.945   2.5235
  2.943   2.5441
  2.942   2.6059
  2.940   2.6162
  2.938   2.6162
  2.937   2.6471
  2.935   2.5853
  2.933   2.4823
  2.932   2.4205
  2.930   2.3587
  2.928   2.3484
  2.927   2.5132
  2.925   2.4926
  2.923   2.4514
  2.922   2.4926
  2.920   2.5750
  2.918   2.5235
  2.917   2.3690
  2.915   2.2660
  2.913   2.2969
  2.912   2.2351
  2.910   2.2145
  2.909   2.1218
  2.907   2.0909
  2.905   2.0909
  2.904   2.1012
  2.902   2.1218
  2.900   2.1218
  2.899   2.0703
  2.897   2.0909
  2.896   1.9982
  2.894   1.9776
  2.892   1.9673
  2.891   1.9158
  2.889   1.8025
  2.887   1.7716
  2.886   1.8025
  2.884   1.9055
  2.883   1.7922
  2.881   1.7922
  2.879   1.9467
  2.878   1.9776
  2.876   1.8540
  2.875   1.8437
  2.873   1.8231
  2.871   1.8746
  2.870   1.7716
  2.868   1.7201
  2.867   1.7716
  2.865   1.8231
  2.864   1.7613
  2.862   1.7407
  2.860   1.7201
  2.859   1.7510
  2.857   1.7922
  2.856   1.7613
  2.854   1.5553
  2.853   1.5038
  2.851   1.6789
  2.849   1.8540
  2.848   1.8437
  2.846   1.7613
  2.845   1.7407
  2.843   1.8952
  2.842   1.7922
  2.840   1.7407
  2.838   1.8540
  2.837   1.9055
  2.835   1.8025
  2.834   1.7716
  2.832   1.8437
  2.831   1.9982
  2.829   1.9261
  2.828   1.8643
  2.826   1.8025
  2.825   1.8025
  2.823   1.8334
  2.821   1.8437
  2.820   1.8746
  2.818   1.9673
  2.817   1.9879
  2.815   1.9879
  2.814   1.9776
  2.812   2.0188
  2.811   2.1012
  2.809   2.1424
  2.808   2.1733
  2.806   2.2660
  2.805   2.0600
  2.803   2.0188
  2.802   2.1115
  2.800   2.2145
  2.799   2.2351
  2.797   2.2557
  2.796   2.2557
  2.794   2.3999
  2.793   2.3999
  2.791   2.3278
  2.790   2.2660
  2.788   2.3381
  2.787   2.4514
  2.785   2.5544
  2.784   2.5029
  2.782   2.5235
  2.781   2.4720
  2.779   2.5132
  2.778   2.5544
  2.776   2.5956
  2.775   2.6059
  2.773   2.6780
  2.772   2.5750
  2.770   2.5338
  2.769   2.6059
  2.767   2.6677
  2.766   2.6986
  2.764   2.8016
  2.763   2.7295
  2.761   2.8840
  2.760   3.1724
  2.758   3.2548
  2.757   3.1724
  2.756   3.1003
  2.754   3.0488
  2.753   3.2548
  2.751   3.4093
  2.750   3.5947
  2.748   3.7389
  2.747   3.8419
  2.745   3.9140
  2.744   4.0273
  2.742   4.0273
  2.741   3.9964
  2.740   4.0170
  2.738   4.3878
  2.737   4.9234
  2.735   5.0161
  2.734   5.0573
  2.732   5.5723
  2.731   5.8504
  2.729   6.0152
  2.728   6.1285
  2.727   6.1491
  2.725   5.9225
  2.724   5.9843
  2.722   6.3963
  2.721   6.4478
  2.719   6.5508
  2.718   7.0658
  2.717   7.4160
  2.715   7.8692
  2.714   8.1988
  2.712   8.4357
  2.711   8.4769
  2.709   8.8168
  2.708   9.3627
  2.707  10.0013
  2.705  10.5163
  2.704  10.9283
  2.702  11.1652
  2.701  11.1858
  2.700  11.5669
  2.698  12.2570
  2.697  12.2364
  2.695  11.8965
  2.694  11.8347
  2.693  12.4218
  2.691  13.3797
  2.690  13.9256
  2.688  14.1110
  2.687  14.1316
  2.686  14.1213
  2.684  14.4097
  2.683  14.8629
  2.681  15.3573
  2.680  15.1101
  2.679  14.5539
  2.677  14.4097
  2.676  14.6157
  2.675  15.5015
  2.673  16.0886
  2.672  15.8620
  2.670  14.8423
  2.669  15.2337
  2.668  15.8002
  2.666  15.1822
  2.665  15.3264
  2.664  16.1916
  2.662  16.9641
  2.661  17.0465
  2.659  17.2113
  2.658  17.6748
  2.657  17.9838
  2.655  17.7160
  2.654  17.8396
  2.653  17.6439
  2.651  17.7263
  2.650  18.3649
  2.649  18.7357
  2.647  18.6533
  2.646  18.3443
  2.645  18.4679
  2.643  18.8799
  2.642  18.7872
  2.640  18.9829
  2.639  19.0859
  2.638  19.2404
  2.636  19.3125
  2.635  19.0653
  2.634  18.5194
  2.632  18.3649
  2.631  17.9941
  2.630  17.5718
  2.628  18.2001
  2.627  18.2722
  2.626  18.2207
  2.624  19.0447
  2.623  19.2404
  2.622  18.9520
  2.620  18.0044
  2.619  17.7675
  2.618  17.7366
  2.617  17.3246
  2.615  18.0147
  2.614  18.6430
  2.613  18.4782
  2.611  18.6224
  2.610  18.4370
  2.609  18.0868
  2.607  17.8293
  2.606  17.2422
  2.605  17.0053
  2.603  17.5615
  2.602  17.8396
  2.601  17.9735
  2.599  18.3546
  2.598  18.5503
  2.597  17.7778
  2.596  16.2534
  2.594  15.4191
  2.593  16.7169
  2.592  17.8190
  2.590  18.1486
  2.589  17.9014
  2.588  17.5306
  2.586  17.3143
  2.585  17.4173
  2.584  16.8199
  2.583  16.8508
  2.581  17.2834
  2.580  17.5718
  2.579  17.9529
  2.577  17.4379
  2.576  17.0156
  2.575  17.3040
  2.574  16.9538
  2.572  16.9023
  2.571  17.4688
  2.570  17.2525
  2.569  17.1289
  2.567  17.5512
  2.566  17.5100
  2.565  17.0259
  2.563  16.4079
  2.562  16.2019
  2.561  16.2740
  2.560  16.7993
  2.558  17.3555
  2.557  17.5718
  2.556  17.6233
  2.555  17.7057
  2.553  17.3658
  2.552  17.1598
  2.551  17.1392
  2.550  17.1495
  2.548  17.2113
  2.547  17.3658
  2.546  17.5203
  2.545  17.3143
  2.543  17.0877
  2.542  17.1392
  2.541  17.3658
  2.540  17.5203
  2.538  17.4688
  2.537  17.3967
  2.536  17.1804
  2.535  17.3349
  2.533  17.4379
  2.532  17.3658
  2.531  17.4173
  2.530  17.6130
  2.528  17.5718
  2.527  17.4791
  2.526  17.5512
  2.525  17.5924
  2.524  17.6439
  2.522  17.9117
  2.521  17.9426
  2.520  17.7675
  2.519  17.7263
  2.517  17.7881
  2.516  17.7572
  2.515  17.7675
  2.514  17.7469
  2.513  17.6748
  2.511  17.5718
  2.510  17.6233
  2.509  17.6645
  2.508  17.7160
  2.506  17.7263
  2.505  17.7160
  2.504  17.7572
  2.503  17.8499
  2.502  17.7572
  2.500  17.6336
  2.500  17.6336
  2.498  17.6347
  2.496  17.4247
  2.494  17.5120
  2.492  17.3386
  2.490  17.0951
  2.488  17.2493
  2.486  17.0103
  2.484  17.3431
  2.482  16.7896
  2.480  16.8275
  2.478  16.8765
  2.476  16.8649
  2.474  16.8725
  2.472  16.8201
  2.470  16.6771
  2.468  16.7844
  2.466  16.5925
  2.464  16.7578
  2.462  16.7456
  2.460  16.6931
  2.458  16.6672
  2.456  17.0405
  2.454  16.7264
  2.452  16.8907
  2.450  17.1558
  2.448  16.9976
  2.446  17.0430
  2.444  17.4677
  2.442  17.4371
  2.440  17.6212
  2.438  17.9847
  2.436  18.1478
  2.434  18.2158
  2.432  18.4261
  2.430  18.7413
  2.428  18.8902
  2.426  19.0826
  2.424  19.3198
  2.422  19.4647
  2.420  19.9076
  2.418  20.0016
  2.416  20.4197
  2.414  20.4790
  2.412  21.0442
  2.410  21.1724
  2.408  21.4359
  2.406  21.6996
  2.404  21.7998
  2.402  22.0924
  2.400  22.3658
  2.398  22.5407
  2.396  22.8740
  2.394  22.9522
  2.392  23.2661
  2.390  23.5182
  2.388  23.6130
  2.386  23.9091
  2.384  24.1017
  2.382  24.3856
  2.380  24.4710
  2.378  24.7300
  2.376  24.9341
  2.374  25.0045
  2.372  25.2590
  2.370  25.2769
  2.368  25.3350
  2.366  25.6529
  2.364  25.8146
  2.362  25.8431
  2.360  25.9981
  2.358  26.0503
  2.356  26.1383
  2.354  26.3122
  2.352  26.4197
  2.350  26.4943
  2.348  26.5796
  2.346  26.6282
  2.344  26.6801
  2.342  26.6298
  2.340  26.6945
  2.338  26.7881
  2.336  26.8460
  2.334  26.7999
  2.332  26.8577
  2.330  26.9426
  2.328  26.9470
  2.326  26.9480
  2.324  26.9416
  2.322  26.8622
  2.320  26.9979
  2.318  26.9746
  2.316  27.0024
  2.314  26.8889
  2.312  26.8342
  2.310  26.7553
  2.308  26.6848
  2.306  26.7024
  2.304  26.6589
  2.302  26.6219
  2.300  26.6362
  2.298  26.5627
  2.296  26.6131
  2.294  26.4896
  2.292  26.4812
  2.290  26.4055
  2.288  26.3371
  2.286  26.3196
  2.284  26.3850
  2.282  26.2752
  2.280  26.2122
  2.278  26.2176
  2.276  26.2873
  2.274  26.2429
  2.272  26.1762
  2.270  26.1264
  2.268  26.0880
  2.266  26.1430
  2.264  26.1706
  2.262  26.1091
  2.260  26.1327
  2.258  26.1466
  2.256  26.2052
  2.254  26.1982
  2.252  26.2425
  2.250  26.3760
  2.248  26.5368
  2.246  26.4674
  2.244  26.4899
  2.242  26.6308
  2.240  26.7050
  2.238  26.7799
  2.236  26.8513
  2.234  26.9037
  2.232  26.9882
  2.230  27.0956
  2.228  27.0798
  2.226  27.1793
  2.224  27.2874
  2.222  27.3047
  2.220  27.3770
  2.218  27.5423
  2.216  27.6747
  2.214  27.7170
  2.212  27.7544
  2.210  27.8349
  2.208  27.9858
  2.206  28.1378
  2.204  28.2110
  2.202  28.3665
  2.200  28.5674
  2.198  28.7140
  2.196  28.7840
  2.194  28.9250
  2.192  29.0766
  2.190  29.1146
  2.188  29.2830
  2.186  29.4060
  2.184  29.6016
  2.182  29.7383
  2.180  29.7680
  2.178  29.8781
  2.176  29.9897
  2.174  30.1222
  2.172  30.2387
  2.170  30.3563
  2.168  30.4064
  2.166  30.4069
  2.164  30.5518
  2.162  30.6835
  2.160  30.6970
  2.158  30.7278
  2.156  30.7839
  2.154  30.8684
  2.152  30.9647
  2.150  30.9968
  2.148  30.9673
  2.146  30.9428
  2.144  31.0044
  2.142  30.9507
  2.140  30.8564
  2.138  30.8969
  2.136  30.9600
  2.134  30.8791
  2.132  30.8297
  2.130  30.7765
  2.128  30.7549
  2.126  30.8259
  2.124  30.8070
  2.122  30.7972
  2.120  30.7549
  2.118  30.6370
  2.116  30.5578
  2.114  30.5221
  2.112  30.4810
  2.110  30.3627
  2.108  30.3651
  2.106  30.3613
  2.104  30.3994
  2.102  30.4341
  2.100  30.3593
  2.098  30.2090
  2.096  30.1639
  2.094  30.1655
  2.092  30.2323
  2.090  30.2234
  2.088  30.0321
  2.086  29.9470
  2.084  29.8562
  2.082  29.8559
  2.080  29.7891
  2.078  29.7241
  2.076  29.5770
  2.074  29.4982
  2.072  29.3542
  2.070  29.2030
  2.068  29.1286
  2.066  29.0417
  2.064  28.7890
  2.062  28.5067
  2.060  28.2854
  2.058  28.2156
  2.056  27.9288
  2.054  27.5344
  2.052  27.3109
  2.050  27.1068
  2.048  26.7777
  2.046  26.4375
  2.044  26.1534
  2.042  25.8812
  2.040  25.5193
  2.038  25.1420
  2.036  24.8089
  2.034  24.4235
  2.032  24.0356
  2.030  23.6624
  2.028  23.1978
  2.026  22.6853
  2.024  22.3250
  2.022  21.8022
  2.020  21.4126
  2.018  20.9310
  2.016  20.3289
  2.014  19.8116
  2.012  19.1554
  2.010  18.6111
  2.008  17.9463
  2.006  17.4538
  2.004  16.7213
  2.002  16.1766
  2.000  15.5774
  1.998  14.9688
  1.996  14.4380
  1.994  13.8669
  1.992  13.5311
  1.990  13.3411
  1.988  13.2816
  1.986  13.2451
  1.984  13.4623
  1.982  13.4007
  1.980  13.7664
  1.978  13.9847
  1.976  14.1615
  1.974  14.4513
  1.972  14.6804
  1.970  14.9624
  1.968  15.1835
  1.966  15.3767
  1.964  15.6368
  1.962  16.0067
  1.960  16.2210
  1.958  16.5090
  1.956  16.7562
  1.954  17.3441
  1.952  17.5710
  1.950  17.7418
  1.948  18.0670
  1.946  18.4692
  1.944  18.6875
  1.942  19.0105
  1.940  19.2737
  1.938  19.4991
  1.936  19.7967
  1.934  20.1341
  1.932  20.3983
  1.930  20.8979
  1.928  21.0682
  1.926  21.4963
  1.924  21.8485
  1.922  22.2688
  1.920  22.6285
  1.918  23.0644
  1.916  23.5866
  1.914  24.0958
  1.912  24.7115
  1.910  25.3215
  1.908  26.0137
  1.906  26.8284
  1.904  27.7073
  1.902  28.4814
  1.900  29.2587
  1.898  30.0251
  1.896  30.7007
  1.894  31.5101
  1.892  31.9782
  1.890  32.5603
  1.888  33.0673
  1.886  33.4294
  1.884  34.0030
  1.882  34.4179
  1.880  34.6604
  1.878  34.7278
  1.876  35.1126
  1.874  35.1531
  1.872  35.4060
  1.870  35.6411
  1.868  35.6789
  1.866  35.8631
  1.864  35.8961
  1.862  35.9197
  1.860  35.9263
  1.858  36.0448
  1.856  35.9681
  1.854  35.8185
  1.852  35.8658
  1.850  35.8622
  1.848  35.7851
  1.846  35.8297
  1.844  35.6814
  1.842  35.5493
  1.840  35.3702
  1.838  35.3628
  1.836  35.3778
  1.834  35.1177
  1.832  35.1651
  1.830  35.0268
  1.828  35.0080
  1.826  34.9715
  1.824  34.7167
  1.822  34.6870
  1.820  34.5420
  1.818  34.4658
  1.816  34.3964
  1.814  34.4048
  1.812  34.2804
  1.810  33.9539
  1.808  34.0315
  1.806  34.0223
  1.804  33.9796
  1.802  33.9693
  1.800  33.8394
  1.798  33.8294
  1.796  33.8477
  1.794  33.8250
  1.792  33.8008
  1.790  33.6732
  1.788  33.6485
  1.786  33.7110
  1.784  33.4529
  1.782  33.5180
  1.780  33.4251
  1.778  33.3249
  1.776  33.2847
  1.774  33.2607
  1.772  33.3128
  1.770  33.3105
  1.768  33.3398
  1.766  33.2141
  1.764  33.4894
  1.762  33.5136
  1.760  33.6479
  1.758  33.8794
  1.756  34.0124
  1.754  34.1033
  1.752  34.4172
  1.750  34.6216
  1.748  34.7848
  1.746  35.1262
  1.744  35.4509
  1.742  35.6861
  1.740  35.9042
  1.738  36.1063
  1.736  36.3692
  1.734  36.5348
  1.732  36.7752
  1.730  37.0278
  1.728  37.1506
  1.726  37.4018
  1.724  37.3382
  1.722  37.5411
  1.720  37.6156
  1.718  37.6892
  1.716  37.7614
  1.714  37.8615
  1.712  37.9811
  1.710  37.9831
  1.708  38.0332
  1.706  38.1248
  1.704  38.1570
  1.702  38.2160
  1.700  38.1404
  1.698  38.3351
  1.696  38.2766
  1.694  38.1657
  1.692  38.1839
  1.690  38.2737
  1.688  38.2868
  1.686  38.2773
  1.684  38.1672
  1.682  38.1788
  1.680  38.1882
  1.678  38.1292
  1.676  38.1458
  1.674  38.2492
  1.672  38.1019
  1.670  38.0563
  1.668  38.1522
  1.666  38.1078
  1.664  38.0360
  1.662  38.1524
  1.660  38.0684
  1.658  37.8777
  1.656  37.8366
  1.654  37.8805
  1.652  37.9763
  1.650  37.8668
  1.648  37.7709
  1.646  37.6172
  1.644  37.5497
  1.642  37.6486
  1.640  37.5749
  1.638  37.4713
  1.636  37.5098
  1.634  37.4439
  1.632  37.4292
  1.630  37.3800
  1.628  37.2628
  1.626  37.2222
  1.624  37.0824
  1.622  36.9854
  1.620  36.8000
  1.618  36.8197
  1.616  36.8184
  1.614  36.6985
  1.612  36.5213
  1.610  36.5380
  1.608  36.5480
  1.606  36.3785
  1.604  36.3191
  1.602  36.2353
  1.600  36.0768
  1.598  36.0063
  1.596  35.8215
  1.594  35.7255
  1.592  35.7099
  1.590  35.5595
  1.588  35.3051
  1.586  35.2614
  1.584  35.1700
  1.582  35.0066
  1.580  34.8645
  1.578  34.7052
  1.576  34.6121
  1.574  34.4541
  1.572  34.2268
  1.570  33.9688
  1.568  33.7302
  1.566  33.5577
  1.564  33.4032
  1.562  33.2549
  1.560  33.0446
  1.558  32.7601
  1.556  32.4945
  1.554  32.3828
  1.552  32.1297
  1.550  31.9199
  1.548  31.7663
  1.546  31.4280
  1.544  31.1736
  1.542  31.0697
  1.540  30.9360
  1.538  30.7483
  1.536  30.4332
  1.534  30.2689
  1.532  30.3539
  1.530  30.2933
  1.528  30.2393
  1.526  30.2787
  1.524  30.3639
  1.522  30.3161
  1.520  30.2332
  1.518  30.3162
  1.516  30.3432
  1.514  30.2189
  1.512  30.2587
  1.510  30.1369
  1.508  29.9898
  1.506  29.9645
  1.504  29.8864
  1.502  29.7155
  1.500  29.5796
  1.498  29.4005
  1.496  29.1431
  1.494  29.0117
  1.492  28.8904
  1.490  28.8220
  1.488  28.5908
  1.486  28.2011
  1.484  28.0055
  1.482  27.6896
  1.480  27.3503
  1.478  26.9302
  1.476  26.4073
  1.474  25.8925
  1.472  25.5064
  1.470  25.1737
  1.468  24.9336
  1.466  24.6953
  1.464  24.9020
  1.462  24.9609
  1.460  25.2971
  1.458  25.7220
  1.456  26.1444
  1.454  26.7523
  1.452  27.2642
  1.450  27.7837
  1.448  28.2543
  1.446  28.7875
  1.444  29.2537
  1.442  29.6601
  1.440  30.0352
  1.438  30.4501
  1.436  30.8311
  1.434  31.2664
  1.432  31.6357
  1.430  31.8434
  1.428  32.1742
  1.426  32.5173
  1.424  32.6868
  1.422  32.9863
  1.420  33.2639
  1.418  33.4555
  1.416  33.7178
  1.414  33.9011
  1.412  34.1198
  1.410  34.4133
  1.408  34.5430
  1.406  34.7317
  1.404  34.9541
  1.402  35.1787
  1.400  35.3909
  1.398  35.4131
  1.396  35.6369
  1.394  35.7459
  1.392  35.9930
  1.390  36.0875
  1.388  36.1652
  1.386  36.3253
  1.384  36.3766
  1.382  36.5493
  1.380  36.8102
  1.378  36.8735
  1.376  37.1481
  1.374  37.0503
  1.372  37.1368
  1.370  37.2687
  1.368  37.3541
  1.366  37.3879
  1.364  37.4709
  1.362  37.4411
  1.360  37.6194
  1.358  37.7821
  1.356  37.6377
  1.354  37.9723
  1.352  37.9407
  1.350  37.9451
  1.348  38.0536
  1.346  37.9863
  1.344  38.1471
  1.342  38.2005
  1.340  38.0445
  1.338  38.1730
  1.336  38.0691
  1.334  38.2582
  1.332  38.3643
  1.330  38.2314
  1.328  38.2807
  1.326  38.2857
  1.324  38.4150
  1.322  38.4048
  1.320  38.5614
  1.318  38.1876
  1.316  38.2103
  1.314  38.3633
  1.312  38.2718
  1.310  38.3875
  1.308  38.3470
  1.306  38.2971
  1.304  38.1745
  1.302  38.4280
  1.300  38.2078
  1.298  38.4221
  1.296  38.0569
  1.294  38.3180
  1.292  38.1828
  1.290  38.1766
  1.288  38.1518
  1.286  38.0762
  1.284  38.1744
  1.282  38.3259
  1.280  38.1825
  1.278  37.9182
  1.276  38.0517
  1.274  37.9621
  1.272  37.9871
  1.270  37.9230
  1.268  37.8492
  1.266  38.0435
  1.264  37.8631
  1.262  37.7542
  1.260  37.7307
  1.258  37.8207
  1.256  37.6993
  1.254  37.6138
  1.252  37.6165
  1.250  37.3365
  1.248  37.4376
  1.246  37.3403
  1.244  37.3097
  1.242  37.2682
  1.240  37.1004
  1.238  37.0399
  1.236  37.0754
  1.234  37.2904
  1.232  37.0710
  1.230  37.2255
  1.228  37.3128
  1.226  37.1073
  1.224  37.1255
  1.222  37.1192
  1.220  37.1211
  1.218  37.1586
  1.216  37.0870
  1.214  36.9772
  1.212  36.9741
  1.210  37.0072
  1.208  37.0829
  1.206  36.9479
  1.204  36.9993
  1.202  36.9790
  1.200  37.0328
  1.198  37.0525
  1.196  37.0206
  1.194  37.0256
  1.192  37.0669
  1.190  37.1386
  1.188  37.0840
  1.186  37.1515
  1.184  37.0485
  1.182  37.1791
  1.180  37.2461
  1.178  37.1134
  1.176  37.2035
  1.174  37.2108
  1.172  37.1181
  1.170  37.0244
  1.168  37.1802
  1.166  37.1360
  1.164  37.0444
  1.162  37.1553
  1.160  37.1451
  1.158  37.1261
  1.156  37.1217
  1.154  37.1832
  1.152  37.2792
  1.150  37.2071
  1.148  37.1437
  1.146  37.1074
  1.144  37.1418
  1.142  37.1785
  1.140  37.0057
  1.138  36.9297
  1.136  37.0865
  1.134  37.1595
  1.132  37.0344
  1.130  36.9633
  1.128  37.0792
  1.126  36.9147
  1.124  36.8750
  1.122  36.9207
  1.120  37.0021
  1.118  36.9742
  1.116  36.8716
  1.114  36.9603
  1.112  36.7761
  1.110  36.9451
  1.108  36.7800
  1.106  36.6652
  1.104  36.8236
  1.102  36.7694
  1.100  36.6570
  1.098  36.6779
  1.096  36.7124
  1.094  36.6370
  1.092  36.6351
  1.090  36.4948
  1.088  36.5750
  1.086  36.4495
  1.084  36.6492
  1.082  36.4715
  1.080  36.3505
  1.078  36.4744
  1.076  36.4955
  1.074  36.3237
  1.072  36.4929
  1.070  36.4692
  1.068  36.4368
  1.066  36.2810
  1.064  36.2654
  1.062  36.3549
  1.060  36.3190
  1.058  36.0483
  1.056  36.1729
  1.054  36.2733
  1.052  36.1386
  1.050  36.1803
  1.048  36.1390
  1.046  36.0284
  1.044  36.0509
  1.042  35.9735
  1.040  35.8826
  1.038  35.9205
  1.036  35.9290
  1.034  35.7194
  1.032  35.7400
  1.030  35.8335
  1.028  35.8373
  1.026  35.6633
  1.024  35.4807
  1.022  35.5874
  1.020  35.6692
  1.018  35.4403
  1.016  35.2390
  1.014  35.3212
  1.012  35.3076
  1.010  35.2256
  1.008  35.1642
  1.006  35.1971
  1.004  34.9953
  1.002  35.0135
  1.000  34.9729
  0.998  34.8532
  0.996  34.8109
  0.994  34.8703
  0.992  34.6647
  0.990  34.4963
  0.988  34.5424
  0.986  34.4529
  0.984  34.4062
  0.982  34.4205
  0.980  34.2681
  0.978  34.0612
  0.976  33.9863
  0.974  33.9253
  0.972  33.8662
  0.970  33.7979
  0.968  33.7188
  0.966  33.5626
  0.964  33.4716
  0.962  33.4230
  0.960  33.3283
  0.958  33.1578
  0.956  32.9982
  0.954  33.0521
  0.952  32.9512
  0.950  32.8982
  0.948  32.7572
  0.946  32.6350
  0.944  32.6094
  0.942  32.4415
  0.940  32.2888
  0.938  32.1376
  0.936  32.0813
  0.934  32.0882
  0.932  31.9598
  0.930  31.9085
  0.928  31.7822
  0.926  31.5473
  0.924  31.6167
  0.922  31.5756
  0.920  31.4477
  0.918  31.3685
  0.916  31.2920
  0.914  31.1499
  0.912  30.9816
  0.910  31.0984
  0.908  31.0914
  0.906  30.8570
  0.904  30.7997
  0.902  30.8154
  0.900  30.6744
  0.898  30.8440
  0.896  30.6158
  0.894  30.5131
  0.892  30.7874
  0.890  30.7272
  0.888  30.6748
  0.886  30.3538
  0.884  30.5754
  0.882  30.2996
  0.880  30.0252
  0.878  30.3322
  0.876  30.3235
  0.874  30.2866
  0.872  30.4433
  0.870  30.8986
  0.868  30.2635
  0.866  29.9591
  0.864  30.5391
  0.862  30.1834
  0.860  30.0171
  0.858  29.7818
  0.856  29.5291
  0.854  29.4963
  0.852  29.4968
  0.850  29.5273
  0.848  29.5402
  0.846  29.5171
  0.844  29.5302
  0.842  29.5655
  0.840  29.5825
  0.838  29.5788
  0.836  29.6036
  0.834  29.6359
  0.832  29.6367
  0.830  29.6643
  0.828  29.6884
  0.826  29.7008
  0.824  29.7411
  0.822  29.7545
  0.820  29.7957
  0.818  29.8310
  0.816  29.8555
  0.814  29.8742
  0.812  29.8981
  0.810  29.9504
  0.808  30.0000
  0.806  30.0214
  0.804  30.0577
  0.802  30.1130
  0.800  30.1453
  0.798  30.1747
  0.796  30.2012
  0.794  30.2472
  0.792  30.2975
  0.790  30.3337
  0.788  30.3417
  0.786  30.3735
  0.784  30.4228
  0.782  30.4510
  0.780  30.4844
  0.778  30.5215
  0.776  30.5445
  0.774  30.5531
  0.772  30.5925
  0.770  30.6393
  0.768  30.6658
  0.766  30.6920
  0.764  30.7155
  0.762  30.7091
  0.760  30.7147
  0.758  30.7302
  0.756  30.7285
  0.754  30.7394
  0.752  30.7287
  0.750  30.7007
  0.748  30.6977
  0.746  30.6748
  0.744  30.6511
  0.742  30.6217
  0.740  30.5788
  0.738  30.5360
  0.736  30.4990
  0.734  30.4456
  0.732  30.3876
  0.730  30.3088
  0.728  30.2518
  0.726  30.1797
  0.724  30.1220
  0.722  30.0266
  0.720  29.9249
  0.718  29.8322
  0.716  29.7452
  0.714  29.6484
  0.712  29.5527
  0.710  29.4415
  0.708  29.3408
  0.706  29.2152
  0.704  29.1134
  0.702  29.0078
  0.700  28.9011
  0.698  28.7919
  0.696  28.6845
  0.694  28.5607
  0.692  28.4529
  0.690  28.3513
  0.688  28.2171
  0.686  28.1056
  0.684  27.9976
  0.682  27.9031
  0.680  27.7999
  0.678  27.6893
  0.676  27.6014
  0.674  27.4914
  0.672  27.4012
  0.670  27.3027
  0.668  27.1938
  0.666  27.0932
  0.664  27.0181
  0.662  26.9406
  0.660  26.8412
  0.658  26.7603
  0.656  26.6728
  0.654  26.5892
  0.652  26.5106
  0.650  26.4232
  0.648  26.3596
  0.646  26.2797
  0.644  26.2074
  0.642  26.1387
  0.640  26.0512
  0.638  25.9703
  0.636  25.9105
  0.634  25.8297
  0.632  25.7549
  0.630  25.6646
  0.628  25.5757
  0.626  25.4877
  0.624  25.3894
  0.622  25.3076
  0.620  25.1823
  0.618  25.0757
  0.616  24.9555
  0.614  24.8050
  0.612  24.6576
  0.610  24.5023
  0.608  24.3209
  0.606  24.1233
  0.604  23.9060
  0.602  23.6783
  0.600  23.4176
  0.598  23.1272
  0.596  22.8327
  0.594  22.5292
  0.592  22.1978
  0.590  21.8333
  0.588  21.4676
  0.586  21.0724
  0.584  20.6814
  0.582  20.2838
  0.580  19.8786
  0.578  19.4610
  0.576  19.0659
  0.574  18.6595
  0.572  18.2547
  0.570  17.8819
  0.568  17.5194
  0.566  17.1671
  0.564  16.8330
  0.562  16.5102
  0.560  16.2283
  0.558  15.9632
  0.556  15.7157
  0.554  15.4833
  0.552  15.2848
  0.550  15.0939
  0.548  14.9230
  0.546  14.7729
  0.544  14.6323
  0.542  14.5052
  0.540  14.3920
  0.538  14.2960
  0.536  14.2055
  0.534  14.1172
  0.532  14.0442
  0.530  13.9735
  0.528  13.9106
  0.526  13.8522
  0.524  13.7957
  0.522  13.7438
  0.520  13.6961
  0.518  13.6536
  0.516  13.6094
  0.514  13.5626
  0.512  13.5241
  0.510  13.4869
  0.508  13.4430
  0.506  13.3966
  0.504  13.3519
  0.502  13.3083
  0.500  13.2564
  0.498  13.2116
  0.496  13.1574
  0.494  13.0999
  0.492  13.0497
  0.490  12.9930
  0.488  12.9384
  0.486  12.8911
  0.484  12.8500
  0.482  12.8135
  0.480  12.7867
  0.478  12.7576
  0.476  12.7302
  0.474  12.6866
  0.472  12.6638
  0.470  12.6303
  0.468  12.5950
  0.466  12.5612
  0.464  12.5236
  0.462  12.4888
  0.460  12.4445
  0.458  12.4060
  0.456  12.3649
  0.454  12.3226
  0.452  12.2685
  0.450  12.2170
  0.448  12.1650
  0.446  12.1125
  0.444  12.0622
  0.442  12.0153
  0.440  11.9693
  0.438  11.9228
  0.436  11.8822
  0.434  11.8369
  0.432  11.7922
  0.430  11.7540
  0.428  11.7229
  0.426  11.6881
  0.424  11.6583
  0.422  11.6319
  0.420  11.5949
  0.418  11.5664
  0.416  11.5393
  0.414  11.5059
  0.412  11.4836
  0.410  11.4644
  0.408  11.4376
  0.406  11.4157
  0.404  11.3925
  0.402  11.3664
  0.400  11.3398
