Name: Kainite MgSO4 * KCL * 3H2O
Type: Mineral
Class: Chlorides
Subclass: None
Particle Size: Unsieved coarse powder
Sample No.: NMNH 83904
Owner: Smithsonian Institute, National Museum of Nat. History
Wavelength range: 0.40 - 14.05 um
Origin: Stassfurt, Germany

Description: NAME=Kainite from Stassfurt, Germany - NMNH 83904





Measurement: Directional Hemispherical Reflectance
First Column: X
Second Column: Y
X Units: Wavelength (micrometers)
Y Units: Reflectance (percent)
First X Value: 14.05105
Last X Value: 0.40000
Number of X Values: 2756
Additional Information: None

 14.051   1.7201
 14.013   1.7098
 13.975   1.7407
 13.938   1.5862
 13.900   1.5965
 13.863   1.6377
 13.826   1.8334
 13.790   1.7613
 13.753   1.9261
 13.717   1.9982
 13.680   2.0806
 13.644   1.8334
 13.609   1.7613
 13.573   1.7819
 13.538   1.9364
 13.502   2.0291
 13.467   2.1321
 13.432   2.0600
 13.398   2.1321
 13.363   2.0497
 13.329   2.0394
 13.295   2.0703
 13.261   2.1630
 13.227   1.9673
 13.193   1.9364
 13.160   1.9570
 13.126   1.9673
 13.093   1.8128
 13.060   1.8334
 13.027   1.8643
 12.995   1.8643
 12.962   1.7098
 12.930   1.6995
 12.898   1.7098
 12.866   1.7510
 12.834   1.6377
 12.802   1.6583
 12.771   1.6377
 12.739   1.6480
 12.708   1.6068
 12.677   1.6377
 12.646   1.6377
 12.616   1.6377
 12.585   1.6068
 12.554   1.6583
 12.524   1.6068
 12.494   1.6686
 12.464   1.6480
 12.434   1.6892
 12.404   1.5965
 12.375   1.5553
 12.345   1.4626
 12.316   1.5141
 12.287   1.4729
 12.258   1.4008
 12.229   1.3081
 12.200   1.3390
 12.171   1.3081
 12.143   1.3390
 12.115   1.3184
 12.086   1.3802
 12.058   1.2875
 12.030   1.2669
 12.002   1.1742
 11.975   1.2051
 11.947   1.1433
 11.920   1.1330
 11.892   1.0712
 11.865   1.1433
 11.838   1.1124
 11.811   1.1742
 11.784   1.2566
 11.757   1.2875
 11.731   1.1433
 11.704   1.2154
 11.678   1.1845
 11.652   1.1639
 11.626   1.1845
 11.600   1.3287
 11.574   1.3802
 11.548   1.4111
 11.522   1.3493
 11.497   1.4008
 11.471   1.3802
 11.446   1.4626
 11.421   1.3802
 11.396   1.4214
 11.371   1.4214
 11.346   1.4317
 11.321   1.4935
 11.297   1.5347
 11.272   1.4935
 11.248   1.5862
 11.223   1.5862
 11.199   1.5965
 11.175   1.5759
 11.151   1.6274
 11.127   1.6789
 11.103   1.7716
 11.079   1.6686
 11.056   1.5965
 11.032   1.5656
 11.009   1.6377
 10.985   1.6789
 10.962   1.7922
 10.939   1.7407
 10.916   1.7201
 10.893   1.6583
 10.870   1.6377
 10.848   1.6480
 10.825   1.7304
 10.802   1.7304
 10.780   1.8334
 10.758   1.8540
 10.735   1.8746
 10.713   1.8540
 10.691   1.8849
 10.669   1.8952
 10.647   1.9570
 10.625   1.9364
 10.604   2.0394
 10.582   2.1012
 10.560   2.0806
 10.539   2.0291
 10.518   2.1733
 10.496   2.2145
 10.475   2.2557
 10.454   2.2557
 10.433   2.2969
 10.412   2.2866
 10.391   2.3175
 10.370   2.3175
 10.350   2.3793
 10.329   2.3999
 10.309   2.3999
 10.288   2.2866
 10.268   2.3484
 10.247   2.3690
 10.227   2.4205
 10.207   2.4926
 10.187   2.5750
 10.167   2.4617
 10.147   2.4411
 10.127   2.3999
 10.108   2.4720
 10.088   2.5441
 10.068   2.5544
 10.049   2.5235
 10.029   2.5853
 10.010   2.5029
  9.991   2.5132
  9.972   2.5544
  9.952   2.6162
  9.933   2.5853
  9.914   2.5441
  9.895   2.5132
  9.877   2.5956
  9.858   2.6368
  9.839   2.6677
  9.821   2.5956
  9.802   2.6574
  9.783   2.5750
  9.765   2.4205
  9.747   2.3072
  9.728   2.2763
  9.710   2.3278
  9.692   2.5029
  9.674   2.6162
  9.656   2.7398
  9.638   2.7192
  9.620   2.7295
  9.602   2.7295
  9.585   2.8222
  9.567   2.8016
  9.549   2.8428
  9.532   2.8943
  9.514   2.9664
  9.497   2.9561
  9.479   3.0179
  9.462   2.9870
  9.445   2.9973
  9.428   2.9870
  9.411   3.0900
  9.394   3.0694
  9.377   3.1003
  9.360   3.0797
  9.343   3.1621
  9.326   3.1827
  9.309   3.2239
  9.293   3.3063
  9.276   3.3887
  9.259   3.3784
  9.243   3.5020
  9.226   3.5226
  9.210   3.5638
  9.194   3.6256
  9.178   3.7492
  9.161   3.7595
  9.145   3.9243
  9.129   4.0067
  9.113   4.0376
  9.097   4.0582
  9.081   4.2024
  9.065   4.3054
  9.049   4.4908
  9.034   4.6144
  9.018   4.9234
  9.002   5.3045
  8.987   5.7062
  8.971   6.1903
  8.956   6.7671
  8.940   7.3954
  8.925   8.2400
  8.909   9.2185
  8.894  10.4442
  8.879  11.5669
  8.864  12.3188
  8.849  12.2158
  8.834  11.7008
  8.819  11.7523
  8.804  12.7720
  8.789  13.9874
  8.774  14.3582
  8.759  13.3076
  8.744  11.3197
  8.730   9.3112
  8.715   7.7868
  8.700   6.4272
  8.686   5.3354
  8.671   4.4496
  8.657   3.7286
  8.642   2.9870
  8.628   2.5544
  8.614   2.5750
  8.599   2.9973
  8.585   3.8831
  8.571   5.1706
  8.557   6.0152
  8.543   6.6332
  8.529   7.5602
  8.515   9.0228
  8.501  10.4030
  8.487  11.4124
  8.473  12.0098
  8.459  12.2570
  8.445  11.9789
  8.431  11.1240
  8.418   9.7232
  8.404   8.3945
  8.391   7.3851
  8.377   6.6229
  8.363   6.0152
  8.350   5.6856
  8.337   5.2015
  8.323   4.5217
  8.310   3.6256
  8.297   2.8737
  8.283   2.1836
  8.270   1.6274
  8.257   1.1433
  8.244   0.8549
  8.231   0.6180
  8.218   0.4841
  8.205   0.4326
  8.192   0.4120
  8.179   0.3502
  8.166   0.3811
  8.153   0.3502
  8.140   0.3502
  8.128   0.2987
  8.115   0.2987
  8.102   0.3296
  8.090   0.3502
  8.077   0.3605
  8.064   0.4429
  8.052   0.4223
  8.039   0.3811
  8.027   0.4017
  8.015   0.4841
  8.002   0.4532
  7.990   0.5150
  7.978   0.5047
  7.965   0.4738
  7.953   0.4841
  7.941   0.4944
  7.929   0.4944
  7.917   0.5665
  7.905   0.5562
  7.893   0.5665
  7.881   0.5871
  7.869   0.6798
  7.857   0.7107
  7.845   0.7416
  7.833   0.7004
  7.821   0.6489
  7.809   0.6695
  7.798   0.7725
  7.786   0.7519
  7.774   0.7725
  7.763   0.8034
  7.751   0.8446
  7.739   0.8240
  7.728   0.8240
  7.716   0.8549
  7.705   0.9270
  7.694   0.8961
  7.682   0.8446
  7.671   0.8137
  7.659   0.9064
  7.648   0.9064
  7.637   0.9270
  7.626   0.9373
  7.614   0.9785
  7.603   0.9785
  7.592   1.0609
  7.581   1.0918
  7.570   1.0815
  7.559   1.0197
  7.548   1.0506
  7.537   1.0197
  7.526   0.9991
  7.515   1.0197
  7.504   1.0815
  7.493   1.0300
  7.483   1.0300
  7.472   1.0300
  7.461   1.0506
  7.450   1.0918
  7.440   1.1948
  7.429   1.1742
  7.418   1.1536
  7.408   1.1227
  7.397   1.0918
  7.387   1.1021
  7.376   1.1639
  7.366   1.1948
  7.355   1.1639
  7.345   1.1742
  7.334   1.2566
  7.324   1.2566
  7.314   1.2360
  7.303   1.2154
  7.293   1.2978
  7.283   1.3081
  7.273   1.2154
  7.263   1.1433
  7.252   1.1948
  7.242   1.2360
  7.232   1.2772
  7.222   1.2669
  7.212   1.2669
  7.202   1.2772
  7.192   1.3287
  7.182   1.2875
  7.172   1.2463
  7.162   1.2154
  7.152   1.2772
  7.143   1.2772
  7.133   1.2978
  7.123   1.3493
  7.113   1.3699
  7.103   1.3390
  7.094   1.3802
  7.084   1.3699
  7.074   1.3596
  7.065   1.3493
  7.055   1.3699
  7.046   1.3081
  7.036   1.2978
  7.026   1.3184
  7.017   1.3802
  7.007   1.4317
  6.998   1.4214
  6.989   1.3699
  6.979   1.3802
  6.970   1.4008
  6.960   1.4111
  6.951   1.3287
  6.942   1.2978
  6.932   1.2978
  6.923   1.3390
  6.914   1.3184
  6.905   1.3596
  6.896   1.3802
  6.886   1.3596
  6.877   1.2875
  6.868   1.3081
  6.859   1.2875
  6.850   1.2978
  6.841   1.3184
  6.832   1.3287
  6.823   1.2669
  6.814   1.2978
  6.805   1.3287
  6.796   1.3184
  6.787   1.2360
  6.778   1.3081
  6.770   1.3596
  6.761   1.3699
  6.752   1.3905
  6.743   1.3905
  6.734   1.4008
  6.726   1.4317
  6.717   1.3699
  6.708   1.3596
  6.700   1.3802
  6.691   1.4214
  6.682   1.4317
  6.674   1.3596
  6.665   1.3081
  6.657   1.3905
  6.648   1.3699
  6.640   1.3184
  6.631   1.3081
  6.623   1.3905
  6.614   1.3493
  6.606   1.3699
  6.597   1.4317
  6.589   1.4214
  6.581   1.3699
  6.572   1.3390
  6.564   1.3390
  6.556   1.4111
  6.547   1.3493
  6.539   1.3390
  6.531   1.4111
  6.523   1.4111
  6.514   1.3699
  6.506   1.4214
  6.498   1.3493
  6.490   1.2669
  6.482   1.3493
  6.474   1.4317
  6.466   1.4111
  6.458   1.4317
  6.450   1.4111
  6.442   1.4008
  6.434   1.3802
  6.426   1.4008
  6.418   1.3802
  6.410   1.2257
  6.402   1.2669
  6.394   1.4008
  6.386   1.4523
  6.378   1.4523
  6.370   1.3699
  6.363   1.4111
  6.355   1.4420
  6.347   1.3699
  6.339   1.3493
  6.332   1.4111
  6.324   1.4420
  6.316   1.4523
  6.308   1.4008
  6.301   1.4111
  6.293   1.3905
  6.286   1.4111
  6.278   1.3905
  6.270   1.3802
  6.263   1.4111
  6.255   1.4317
  6.248   1.4420
  6.240   1.5038
  6.233   1.4523
  6.225   1.3802
  6.218   1.4214
  6.210   1.4523
  6.203   1.4523
  6.195   1.4523
  6.188   1.4111
  6.181   1.3596
  6.173   1.3905
  6.166   1.4317
  6.159   1.4626
  6.151   1.5244
  6.144   1.4935
  6.137   1.4111
  6.130   1.4111
  6.122   1.4214
  6.115   1.3493
  6.108   1.3493
  6.101   1.4317
  6.094   1.4729
  6.086   1.3802
  6.079   1.2669
  6.072   1.1536
  6.065   1.0506
  6.058   1.0403
  6.051   1.0300
  6.044   0.9682
  6.037   0.9991
  6.030   0.9991
  6.023   1.0197
  6.016   1.0403
  6.009   1.0197
  6.002   1.0094
  5.995   0.9991
  5.988   0.9270
  5.981   0.9373
  5.974   0.9476
  5.967   0.9476
  5.960   0.9991
  5.954   1.0815
  5.947   1.1124
  5.940   1.0918
  5.933   0.9991
  5.926   1.0300
  5.920   1.0712
  5.913   1.1330
  5.906   1.1948
  5.899   1.1948
  5.893   1.1742
  5.886   1.2360
  5.879   1.2154
  5.873   1.1742
  5.866   1.1948
  5.859   1.2257
  5.853   1.3287
  5.846   1.4214
  5.840   1.4626
  5.833   1.5038
  5.827   1.5038
  5.820   1.5244
  5.813   1.5862
  5.807   1.6995
  5.800   1.7201
  5.794   1.7922
  5.788   1.8952
  5.781   1.9467
  5.775   1.9879
  5.768   2.0085
  5.762   1.9261
  5.755   2.0085
  5.749   2.1424
  5.743   2.1836
  5.736   2.2557
  5.730   2.3484
  5.724   2.3896
  5.717   2.4205
  5.711   2.4720
  5.705   2.5647
  5.698   2.6677
  5.692   2.7604
  5.686   2.8119
  5.680   2.8634
  5.674   2.8840
  5.667   2.9664
  5.661   3.0488
  5.655   3.0591
  5.649   3.1003
  5.643   3.1312
  5.637   3.1209
  5.630   3.2754
  5.624   3.3990
  5.618   3.4402
  5.612   3.4505
  5.606   3.5226
  5.600   3.5741
  5.594   3.6565
  5.588   3.7286
  5.582   3.6668
  5.576   3.6359
  5.570   3.7595
  5.564   3.8419
  5.558   3.8522
  5.552   3.8831
  5.546   3.9037
  5.540   3.9964
  5.534   4.0891
  5.528   4.1097
  5.523   4.1200
  5.517   4.1715
  5.511   4.2333
  5.505   4.2848
  5.499   4.3363
  5.493   4.3363
  5.487   4.3466
  5.482   4.3466
  5.476   4.3363
  5.470   4.4187
  5.464   4.4187
  5.459   4.3569
  5.453   4.4702
  5.447   4.5320
  5.441   4.5732
  5.436   4.6144
  5.430   4.6556
  5.424   4.6041
  5.419   4.5320
  5.413   4.6247
  5.407   4.6659
  5.402   4.6762
  5.396   4.7174
  5.390   4.7174
  5.385   4.7483
  5.379   4.7586
  5.374   4.7689
  5.368   4.7586
  5.363   4.7380
  5.357   4.7277
  5.352   4.6865
  5.346   4.6762
  5.341   4.7792
  5.335   4.8616
  5.330   4.8822
  5.324   4.8822
  5.319   4.9028
  5.313   4.9028
  5.308   4.9440
  5.302   4.9543
  5.297   4.9749
  5.291   4.9852
  5.286   5.0264
  5.281   5.0367
  5.275   5.0470
  5.270   5.0882
  5.265   5.1397
  5.259   5.1397
  5.254   5.1500
  5.249   5.1809
  5.243   5.2324
  5.238   5.2736
  5.233   5.3148
  5.227   5.3663
  5.222   5.4075
  5.217   5.3972
  5.212   5.3869
  5.206   5.4487
  5.201   5.5002
  5.196   5.5105
  5.191   5.5826
  5.186   5.5723
  5.180   5.5517
  5.175   5.5826
  5.170   5.5826
  5.165   5.5929
  5.160   5.6032
  5.155   5.5620
  5.150   5.5414
  5.145   5.4899
  5.139   5.4899
  5.134   5.5002
  5.129   5.4899
  5.124   5.5002
  5.119   5.5620
  5.114   5.5620
  5.109   5.5105
  5.104   5.4796
  5.099   5.4178
  5.094   5.3560
  5.089   5.3663
  5.084   5.3663
  5.079   5.3354
  5.074   5.3148
  5.069   5.3148
  5.064   5.3148
  5.059   5.3045
  5.054   5.2839
  5.049   5.2736
  5.044   5.3045
  5.040   5.2736
  5.035   5.2221
  5.030   5.1603
  5.025   5.1088
  5.020   5.1191
  5.015   5.1191
  5.010   5.1088
  5.005   5.1088
  5.001   5.0985
  4.996   5.0470
  4.991   4.9749
  4.986   4.9543
  4.981   4.9749
  4.977   4.9852
  4.972   4.9543
  4.967   4.9234
  4.962   4.8822
  4.958   4.8204
  4.953   4.7998
  4.948   4.7689
  4.943   4.7586
  4.939   4.7277
  4.934   4.6968
  4.929   4.6865
  4.925   4.6453
  4.920   4.5938
  4.915   4.5320
  4.911   4.4805
  4.906   4.4702
  4.901   4.4496
  4.897   4.3569
  4.892   4.2951
  4.888   4.3260
  4.883   4.3157
  4.878   4.2848
  4.874   4.2642
  4.869   4.2127
  4.865   4.1612
  4.860   4.1612
  4.856   4.1612
  4.851   4.1406
  4.846   4.0994
  4.842   4.0273
  4.837   3.9964
  4.833   3.9037
  4.828   3.8728
  4.824   3.8316
  4.819   3.7904
  4.815   3.7595
  4.810   3.7286
  4.806   3.7286
  4.802   3.6668
  4.797   3.5844
  4.793   3.5741
  4.788   3.5638
  4.784   3.5020
  4.779   3.4917
  4.775   3.4917
  4.771   3.4917
  4.766   3.4711
  4.762   3.3784
  4.758   3.2857
  4.753   3.2548
  4.749   3.2239
  4.744   3.1209
  4.740   3.0591
  4.736   3.0076
  4.731   2.9664
  4.727   2.8840
  4.723   2.7913
  4.719   2.8016
  4.714   2.8325
  4.710   2.8531
  4.706   2.8840
  4.701   2.8634
  4.697   2.8222
  4.693   2.7913
  4.689   2.8119
  4.684   2.8428
  4.680   2.8325
  4.676   2.7398
  4.672   2.6059
  4.668   2.5338
  4.663   2.5853
  4.659   2.5544
  4.655   2.5544
  4.651   2.5338
  4.647   2.5029
  4.643   2.5338
  4.638   2.5132
  4.634   2.5029
  4.630   2.5029
  4.626   2.4617
  4.622   2.3690
  4.618   2.3072
  4.614   2.3278
  4.610   2.3793
  4.605   2.3690
  4.601   2.3072
  4.597   2.2969
  4.593   2.3381
  4.589   2.3175
  4.585   2.2660
  4.581   2.2351
  4.577   2.2660
  4.573   2.3175
  4.569   2.3278
  4.565   2.3072
  4.561   2.2145
  4.557   2.1527
  4.553   2.1630
  4.549   2.1321
  4.545   2.0909
  4.541   2.1836
  4.537   2.2763
  4.533   2.2763
  4.529   2.2557
  4.525   2.2557
  4.521   2.3175
  4.517   2.3381
  4.513   2.3072
  4.509   2.2660
  4.505   2.2763
  4.502   2.3381
  4.498   2.3690
  4.494   2.3690
  4.490   2.3896
  4.486   2.4102
  4.482   2.4102
  4.478   2.4411
  4.474   2.4926
  4.470   2.5338
  4.467   2.5338
  4.463   2.5235
  4.459   2.5441
  4.455   2.5750
  4.451   2.5853
  4.447   2.6162
  4.444   2.6677
  4.440   2.6986
  4.436   2.7398
  4.432   2.7810
  4.428   2.7707
  4.425   2.8325
  4.421   2.8737
  4.417   2.8428
  4.413   2.8737
  4.410   2.9149
  4.406   2.9561
  4.402   3.0385
  4.398   2.9870
  4.395   2.8943
  4.391   2.9046
  4.387   3.0076
  4.384   3.0179
  4.380   2.9870
  4.376   2.9973
  4.372   2.9973
  4.369   3.0385
  4.365   3.0900
  4.361   3.1003
  4.358   3.1106
  4.354   3.1106
  4.350   3.0900
  4.347   3.1415
  4.343   3.2754
  4.340   3.3681
  4.336   3.3475
  4.332   3.3063
  4.329   3.3681
  4.325   3.4814
  4.321   3.5123
  4.318   3.4711
  4.314   3.4608
  4.311   3.4814
  4.307   3.5741
  4.304   3.6256
  4.300   3.6462
  4.296   3.6874
  4.293   3.7595
  4.289   3.7286
  4.286   3.6874
  4.282   3.6565
  4.279   3.6668
  4.275   3.7698
  4.272   3.9449
  4.268   4.0170
  4.265   3.9449
  4.261   3.9037
  4.258   3.8934
  4.254   3.8625
  4.251   3.9346
  4.247   4.0273
  4.244   4.1406
  4.240   4.2436
  4.237   4.3466
  4.233   4.4290
  4.230   4.5217
  4.226   4.5423
  4.223   4.5423
  4.219   4.5217
  4.216   4.5732
  4.213   4.6659
  4.209   4.7689
  4.206   4.9131
  4.202   5.0367
  4.199   5.0985
  4.196   5.1603
  4.192   5.2221
  4.189   5.2221
  4.185   5.3045
  4.182   5.4281
  4.179   5.4899
  4.175   5.5517
  4.172   5.5826
  4.169   5.5929
  4.165   5.6444
  4.162   5.7165
  4.159   5.7062
  4.155   5.7783
  4.152   5.8607
  4.149   5.8607
  4.145   5.8813
  4.142   5.9431
  4.139   5.9534
  4.135   5.9740
  4.132   5.9946
  4.129   6.0358
  4.126   6.0667
  4.122   6.1594
  4.119   6.2624
  4.116   6.3757
  4.112   6.3242
  4.109   6.2727
  4.106   6.3757
  4.103   6.4375
  4.099   6.4684
  4.096   6.5096
  4.093   6.5405
  4.090   6.6126
  4.086   6.6641
  4.083   6.7671
  4.080   6.8495
  4.077   6.8392
  4.074   6.8701
  4.070   6.8804
  4.067   6.8495
  4.064   6.9319
  4.061   7.0040
  4.058   7.0246
  4.055   7.0452
  4.051   7.0967
  4.048   7.0658
  4.045   7.1276
  4.042   7.2100
  4.039   7.3233
  4.036   7.3748
  4.032   7.3748
  4.029   7.4057
  4.026   7.4572
  4.023   7.4366
  4.020   7.4778
  4.017   7.6323
  4.014   7.7559
  4.011   7.8177
  4.008   7.8177
  4.004   7.7868
  4.001   7.9001
  3.998   8.0134
  3.995   8.0340
  3.992   8.0958
  3.989   8.2297
  3.986   8.3018
  3.983   8.4151
  3.980   8.4769
  3.977   8.4872
  3.974   8.4769
  3.971   8.4563
  3.968   8.5490
  3.965   8.6417
  3.962   8.6108
  3.959   8.6314
  3.956   8.7447
  3.953   8.8168
  3.950   8.8889
  3.947   8.8889
  3.944   8.9404
  3.941   9.0125
  3.938   9.0228
  3.935   9.0537
  3.932   9.0640
  3.929   9.0846
  3.926   9.1155
  3.923   9.1567
  3.920   9.2803
  3.917   9.3524
  3.914   9.3833
  3.911   9.3524
  3.908   9.3318
  3.905   9.3730
  3.902   9.4039
  3.899   9.4451
  3.896   9.4760
  3.893   9.5687
  3.890   9.5996
  3.887   9.6305
  3.884   9.6511
  3.882   9.7129
  3.879   9.7335
  3.876   9.7438
  3.873   9.7747
  3.870   9.8365
  3.867   9.8159
  3.864   9.8365
  3.861   9.8262
  3.858   9.8159
  3.856   9.8880
  3.853   9.9292
  3.850   9.9498
  3.847   9.9807
  3.844   9.9601
  3.841   9.8880
  3.838   9.8777
  3.836   9.8983
  3.833   9.8571
  3.830   9.7953
  3.827   9.7335
  3.824   9.7850
  3.822   9.8468
  3.819   9.7850
  3.816   9.7850
  3.813   9.8468
  3.810   9.7747
  3.807   9.7335
  3.805   9.7129
  3.802   9.7129
  3.799   9.7335
  3.796   9.7232
  3.794   9.6820
  3.791   9.5893
  3.788   9.5172
  3.785   9.5275
  3.782   9.5275
  3.780   9.4863
  3.777   9.3730
  3.774   9.3112
  3.771   9.2494
  3.769   9.2185
  3.766   9.1773
  3.763   9.1670
  3.761   9.1979
  3.758   9.1876
  3.755   9.0743
  3.752   9.0331
  3.750   8.9507
  3.747   8.8683
  3.744   8.8271
  3.742   8.8477
  3.739   8.8271
  3.736   8.7550
  3.733   8.6623
  3.731   8.6211
  3.728   8.5696
  3.725   8.4666
  3.723   8.4769
  3.720   8.4769
  3.717   8.4254
  3.715   8.3842
  3.712   8.3842
  3.709   8.3533
  3.707   8.2194
  3.704   8.0340
  3.702   7.9001
  3.699   7.8898
  3.696   7.9001
  3.694   7.8486
  3.691   7.7662
  3.688   7.6941
  3.686   7.6323
  3.683   7.6014
  3.680   7.4881
  3.678   7.4675
  3.675   7.3954
  3.673   7.3748
  3.670   7.2615
  3.667   7.1482
  3.665   7.0967
  3.662   7.0658
  3.660   6.9422
  3.657   6.7980
  3.655   6.7053
  3.652   6.7568
  3.649   6.7671
  3.647   6.7465
  3.644   6.6435
  3.642   6.4890
  3.639   6.3860
  3.637   6.3139
  3.634   6.2109
  3.632   6.2212
  3.629   6.1491
  3.626   6.0564
  3.624   5.9946
  3.621   5.8710
  3.619   5.7577
  3.616   5.8092
  3.614   5.7577
  3.611   5.6753
  3.609   5.6444
  3.606   5.6032
  3.604   5.5311
  3.601   5.4590
  3.599   5.3354
  3.596   5.2736
  3.594   5.2324
  3.591   5.1912
  3.589   5.1294
  3.586   5.0264
  3.584   4.9543
  3.581   4.9234
  3.579   4.9028
  3.576   4.8101
  3.574   4.7277
  3.571   4.7380
  3.569   4.7380
  3.567   4.7483
  3.564   4.6556
  3.562   4.5423
  3.559   4.4290
  3.557   4.3363
  3.554   4.2642
  3.552   4.2436
  3.549   4.1818
  3.547   4.0994
  3.545   4.0788
  3.542   4.0376
  3.540   3.9552
  3.537   3.9449
  3.535   3.9449
  3.533   3.9552
  3.530   3.9243
  3.528   3.8728
  3.525   3.7698
  3.523   3.7080
  3.521   3.6359
  3.518   3.6462
  3.516   3.6874
  3.513   3.6565
  3.511   3.5741
  3.509   3.5329
  3.506   3.4299
  3.504   3.4093
  3.502   3.4402
  3.499   3.4402
  3.497   3.3887
  3.494   3.3578
  3.492   3.2651
  3.490   3.2342
  3.487   3.2651
  3.485   3.2754
  3.483   3.2548
  3.480   3.2960
  3.478   3.3063
  3.476   3.3269
  3.473   3.2548
  3.471   3.1827
  3.469   3.1312
  3.466   3.1415
  3.464   3.1106
  3.462   3.1415
  3.460   3.0591
  3.457   3.0385
  3.455   3.0694
  3.453   3.0179
  3.450   2.9355
  3.448   2.9046
  3.446   2.8428
  3.443   2.8840
  3.441   2.9046
  3.439   2.8840
  3.437   2.8325
  3.434   2.7810
  3.432   2.7398
  3.430   2.7810
  3.428   2.7913
  3.425   2.7501
  3.423   2.6574
  3.421   2.6162
  3.418   2.5647
  3.416   2.5544
  3.414   2.5441
  3.412   2.6059
  3.409   2.5853
  3.407   2.5132
  3.405   2.4926
  3.403   2.5338
  3.401   2.5029
  3.398   2.4514
  3.396   2.3896
  3.394   2.4720
  3.392   2.4411
  3.389   2.3793
  3.387   2.4205
  3.385   2.4617
  3.383   2.3793
  3.381   2.3175
  3.378   2.2969
  3.376   2.2351
  3.374   2.2145
  3.372   2.2557
  3.370   2.2866
  3.367   2.3072
  3.365   2.2454
  3.363   2.3381
  3.361   2.3484
  3.359   2.2557
  3.357   2.1836
  3.354   2.1630
  3.352   2.0806
  3.350   2.1321
  3.348   2.2351
  3.346   2.2557
  3.344   2.1630
  3.341   2.1321
  3.339   2.1012
  3.337   2.0806
  3.335   2.0909
  3.333   2.1939
  3.331   2.1939
  3.329   2.1733
  3.326   2.0703
  3.324   2.1115
  3.322   2.1321
  3.320   2.0291
  3.318   1.9776
  3.316   2.0806
  3.314   2.1527
  3.312   2.1115
  3.309   1.9982
  3.307   2.0600
  3.305   2.1115
  3.303   2.1527
  3.301   2.1321
  3.299   2.1218
  3.297   2.1012
  3.295   2.0085
  3.293   2.0291
  3.291   2.1218
  3.288   2.1218
  3.286   2.0497
  3.284   1.9673
  3.282   1.9982
  3.280   2.0188
  3.278   2.0188
  3.276   2.0909
  3.274   2.1218
  3.272   2.0188
  3.270   1.9776
  3.268   1.9879
  3.266   2.0394
  3.264   2.0085
  3.262   1.9673
  3.259   1.9879
  3.257   2.0703
  3.255   2.1012
  3.253   2.0394
  3.251   2.0188
  3.249   2.1115
  3.247   2.1733
  3.245   2.1733
  3.243   2.0806
  3.241   1.9879
  3.239   1.8952
  3.237   1.9261
  3.235   1.9879
  3.233   1.9776
  3.231   1.9673
  3.229   2.0188
  3.227   2.1218
  3.225   2.1733
  3.223   2.0703
  3.221   1.9364
  3.219   1.8540
  3.217   1.8334
  3.215   1.8025
  3.213   1.8643
  3.211   1.9570
  3.209   2.0188
  3.207   1.9776
  3.205   1.8746
  3.203   1.7922
  3.201   1.8334
  3.199   1.8437
  3.197   1.8128
  3.195   1.8025
  3.193   1.8025
  3.191   1.7716
  3.189   1.8334
  3.187   1.8437
  3.185   1.8231
  3.183   1.8128
  3.182   1.7819
  3.180   1.7613
  3.178   1.8025
  3.176   1.8231
  3.174   1.8540
  3.172   1.7922
  3.170   1.7407
  3.168   1.7407
  3.166   1.7819
  3.164   1.7716
  3.162   1.8334
  3.160   1.8025
  3.158   1.8128
  3.156   1.7922
  3.154   1.8025
  3.152   1.8540
  3.151   1.8437
  3.149   1.7613
  3.147   1.7613
  3.145   1.7716
  3.143   1.8437
  3.141   1.8746
  3.139   1.8952
  3.137   1.8025
  3.135   1.8128
  3.133   1.8643
  3.132   1.8643
  3.130   1.8025
  3.128   1.8025
  3.126   1.8437
  3.124   1.9261
  3.122   1.8437
  3.120   1.7613
  3.118   1.7922
  3.117   1.8231
  3.115   1.8643
  3.113   1.8334
  3.111   1.7922
  3.109   1.8540
  3.107   1.8128
  3.105   1.7716
  3.103   1.8849
  3.102   1.9364
  3.100   1.8952
  3.098   1.9055
  3.096   1.9055
  3.094   1.8437
  3.092   1.7510
  3.091   1.7613
  3.089   1.8746
  3.087   2.0291
  3.085   1.9673
  3.083   1.8849
  3.081   1.7922
  3.079   1.8540
  3.078   1.8849
  3.076   1.8231
  3.074   1.7201
  3.072   1.7613
  3.070   1.7819
  3.069   1.8128
  3.067   1.7613
  3.065   1.7407
  3.063   1.6686
  3.061   1.6377
  3.060   1.6995
  3.058   1.8746
  3.056   1.8746
  3.054   1.7613
  3.052   1.7098
  3.051   1.7819
  3.049   1.7407
  3.047   1.7716
  3.045   1.8437
  3.043   1.8437
  3.042   1.8128
  3.040   1.8540
  3.038   1.7613
  3.036   1.7716
  3.034   1.8231
  3.033   1.8643
  3.031   1.8334
  3.029   1.8334
  3.027   1.8025
  3.026   1.8849
  3.024   1.8643
  3.022   1.7613
  3.020   1.8849
  3.019   1.8746
  3.017   1.8540
  3.015   1.8849
  3.013   1.8643
  3.012   1.9982
  3.010   2.0600
  3.008   2.0291
  3.006   1.9673
  3.005   1.9982
  3.003   2.0394
  3.001   2.0909
  2.999   2.0188
  2.998   1.9673
  2.996   2.0085
  2.994   2.0600
  2.992   1.9879
  2.991   1.9673
  2.989   1.9055
  2.987   1.9673
  2.986   2.0291
  2.984   2.0085
  2.982   1.8540
  2.980   1.8025
  2.979   1.7201
  2.977   1.7510
  2.975   1.6686
  2.974   1.4832
  2.972   1.4626
  2.970   1.4523
  2.968   1.4008
  2.967   1.4420
  2.965   1.2566
  2.963   1.2257
  2.962   1.3596
  2.960   1.5244
  2.958   1.4008
  2.957   1.1639
  2.955   1.0609
  2.953   1.0815
  2.952   0.9991
  2.950   1.0094
  2.948   1.0815
  2.947   1.2051
  2.945   1.2051
  2.943   1.1330
  2.942   1.1433
  2.940   1.2360
  2.938   1.2669
  2.937   1.2051
  2.935   1.1227
  2.933   1.1845
  2.932   1.1742
  2.930   1.0712
  2.928   1.0712
  2.927   1.1124
  2.925   1.0197
  2.923   1.0609
  2.922   1.0506
  2.920   1.0506
  2.918   1.1227
  2.917   1.1021
  2.915   1.0094
  2.913   0.9785
  2.912   0.9270
  2.910   0.9579
  2.909   0.9373
  2.907   0.9373
  2.905   0.8755
  2.904   0.9167
  2.902   0.9682
  2.900   1.2051
  2.899   1.2154
  2.897   1.1124
  2.896   0.8343
  2.894   0.7622
  2.892   0.9373
  2.891   1.1433
  2.889   1.0609
  2.887   1.0300
  2.886   0.9888
  2.884   0.8446
  2.883   0.8343
  2.881   0.9064
  2.879   0.8137
  2.878   0.8858
  2.876   0.9064
  2.875   0.9167
  2.873   0.8652
  2.871   1.0609
  2.870   1.0300
  2.868   0.8755
  2.867   0.8446
  2.865   0.8755
  2.864   0.8240
  2.862   0.8755
  2.860   0.8137
  2.859   0.9064
  2.857   0.9476
  2.856   0.9991
  2.854   1.0712
  2.853   1.0506
  2.851   0.8755
  2.849   0.8446
  2.848   0.8137
  2.846   0.9270
  2.845   0.9991
  2.843   0.8858
  2.842   0.9064
  2.840   1.1124
  2.838   0.9579
  2.837   0.8343
  2.835   0.9167
  2.834   0.9785
  2.832   0.9373
  2.831   0.9476
  2.829   1.0918
  2.828   1.2257
  2.826   1.0403
  2.825   0.8652
  2.823   0.8240
  2.821   0.9373
  2.820   0.9785
  2.818   1.1124
  2.817   1.0609
  2.815   0.9682
  2.814   0.9270
  2.812   1.1124
  2.811   1.0712
  2.809   0.9167
  2.808   0.9270
  2.806   1.0609
  2.805   1.0197
  2.803   1.0094
  2.802   0.9991
  2.800   1.0712
  2.799   1.0918
  2.797   1.2257
  2.796   1.2566
  2.794   1.2978
  2.793   1.2772
  2.791   1.2875
  2.790   1.2257
  2.788   1.2875
  2.787   1.2669
  2.785   1.2566
  2.784   1.3390
  2.782   1.4111
  2.781   1.2463
  2.779   1.3287
  2.778   1.4626
  2.776   1.4317
  2.775   1.5141
  2.773   1.5759
  2.772   1.6068
  2.770   1.6995
  2.769   1.7407
  2.767   1.7407
  2.766   1.7201
  2.764   1.7201
  2.763   1.6789
  2.761   1.8746
  2.760   1.9776
  2.758   1.8952
  2.757   1.9158
  2.756   2.0600
  2.754   2.0497
  2.753   2.1218
  2.751   2.2454
  2.750   2.5338
  2.748   2.7192
  2.747   2.8737
  2.745   2.8840
  2.744   2.9149
  2.742   2.8634
  2.741   2.7707
  2.740   2.8119
  2.738   3.0282
  2.737   3.1724
  2.735   3.3784
  2.734   3.6153
  2.732   3.7904
  2.731   3.8831
  2.729   3.8419
  2.728   3.9037
  2.727   4.1303
  2.725   4.1303
  2.724   4.2024
  2.722   4.1715
  2.721   4.1921
  2.719   4.4702
  2.718   4.7483
  2.717   5.0058
  2.715   5.2427
  2.714   5.0985
  2.712   4.9955
  2.711   4.9337
  2.709   5.1603
  2.708   5.4281
  2.707   5.7474
  2.705   5.7165
  2.704   5.7577
  2.702   5.8916
  2.701   6.0152
  2.700   6.2212
  2.698   6.3654
  2.697   6.2830
  2.695   6.1594
  2.694   6.0770
  2.693   6.1491
  2.691   6.3757
  2.690   6.5817
  2.688   6.5817
  2.687   6.7877
  2.686   6.9216
  2.684   6.9628
  2.683   6.8804
  2.681   7.0761
  2.680   7.0040
  2.679   6.8392
  2.677   6.8701
  2.676   7.1070
  2.675   7.2306
  2.673   7.3130
  2.672   7.2924
  2.670   7.0555
  2.669   7.2821
  2.668   7.7353
  2.666   7.5705
  2.665   7.7147
  2.664   7.9001
  2.662   7.8383
  2.661   7.9104
  2.659   8.0443
  2.658   8.1988
  2.657   8.3945
  2.655   8.4151
  2.654   8.4254
  2.653   8.2606
  2.651   8.2812
  2.650   8.4666
  2.649   8.7344
  2.647   8.6314
  2.646   8.5593
  2.645   8.6726
  2.643   8.9095
  2.642   8.9713
  2.640   8.9507
  2.639   8.8992
  2.638   8.9404
  2.636   9.0125
  2.635   9.0640
  2.634   8.9507
  2.632   9.1052
  2.631   8.8271
  2.630   8.5696
  2.628   8.9610
  2.627   9.0331
  2.626   8.8889
  2.624   9.2082
  2.623   9.2494
  2.622   9.2597
  2.620   9.1567
  2.619   9.1670
  2.618   9.1361
  2.617   8.8271
  2.615   8.8683
  2.614   9.1258
  2.613   8.9919
  2.611   9.1670
  2.610   9.1773
  2.609   9.0640
  2.607   8.9610
  2.606   8.8683
  2.605   8.6932
  2.603   8.7447
  2.602   9.0434
  2.601   9.1258
  2.599   8.9198
  2.598   8.7344
  2.597   8.3430
  2.596   7.9001
  2.594   7.9207
  2.593   8.2194
  2.592   8.4872
  2.590   8.6726
  2.589   8.3945
  2.588   8.0546
  2.586   8.0649
  2.585   8.1782
  2.584   7.8383
  2.583   7.7250
  2.581   7.7147
  2.580   7.6838
  2.579   7.7044
  2.577   7.5808
  2.576   7.2718
  2.575   7.2100
  2.574   7.1070
  2.572   6.9628
  2.571   6.8289
  2.570   6.7362
  2.569   6.6950
  2.567   6.6847
  2.566   6.5920
  2.565   6.3860
  2.563   6.3757
  2.562   6.6229
  2.561   6.6641
  2.560   6.8186
  2.558   6.8083
  2.557   7.0452
  2.556   7.2512
  2.555   7.2615
  2.553   7.1173
  2.552   7.1894
  2.551   7.2409
  2.550   7.4675
  2.548   7.5087
  2.547   7.5190
  2.546   7.7044
  2.545   7.6426
  2.543   7.5499
  2.542   7.6529
  2.541   7.5911
  2.540   7.6426
  2.538   7.6323
  2.537   7.3851
  2.536   7.0452
  2.535   7.2100
  2.533   7.4675
  2.532   7.5087
  2.531   7.3954
  2.530   7.3027
  2.528   7.1585
  2.527   7.1379
  2.526   7.2409
  2.525   7.3027
  2.524   7.1379
  2.522   6.8907
  2.521   6.7877
  2.520   7.0040
  2.519   7.0452
  2.517   6.9422
  2.516   6.9113
  2.515   6.7980
  2.514   6.8907
  2.513   7.1173
  2.511   7.1379
  2.510   7.0246
  2.509   6.9010
  2.508   6.8598
  2.506   6.6950
  2.505   6.9319
  2.504   7.1173
  2.503   7.0761
  2.502   7.2306
  2.500   7.3439
  2.500   7.3439
  2.498   7.2695
  2.496   7.6625
  2.494   7.3570
  2.492   7.6933
  2.490   7.4917
  2.488   7.9562
  2.486   7.8528
  2.484   7.9746
  2.482   8.0512
  2.480   8.0472
  2.478   8.2433
  2.476   8.2349
  2.474   8.2282
  2.472   8.1862
  2.470   8.4758
  2.468   8.4465
  2.466   8.5705
  2.464   8.6045
  2.462   8.7678
  2.460   8.5894
  2.458   8.9434
  2.456   8.8863
  2.454   9.1125
  2.452   9.0633
  2.450   9.2401
  2.448   9.2429
  2.446   9.3869
  2.444   9.6117
  2.442   9.3822
  2.440   9.6253
  2.438   9.8727
  2.436   9.7634
  2.434   9.9439
  2.432  10.1135
  2.430  10.2227
  2.428  10.4059
  2.426  10.4302
  2.424  10.5179
  2.422  10.8684
  2.420  11.0376
  2.418  11.0678
  2.416  11.4223
  2.414  11.5075
  2.412  11.7664
  2.410  11.7840
  2.408  12.1496
  2.406  12.3506
  2.404  12.5356
  2.402  12.8006
  2.400  12.9760
  2.398  13.3875
  2.396  13.5727
  2.394  13.8333
  2.392  14.0985
  2.390  14.3804
  2.388  14.7872
  2.386  15.0345
  2.384  15.2379
  2.382  15.5770
  2.380  15.9240
  2.378  16.2717
  2.376  16.5559
  2.374  17.0134
  2.372  17.1067
  2.370  17.6565
  2.368  18.0400
  2.366  18.2837
  2.364  18.5265
  2.362  18.9720
  2.360  19.1662
  2.358  19.3997
  2.356  19.8175
  2.354  20.0359
  2.352  20.2776
  2.350  20.6648
  2.348  20.8169
  2.346  21.0124
  2.344  21.1964
  2.342  21.4968
  2.340  21.7582
  2.338  21.9746
  2.336  22.1238
  2.334  22.3330
  2.332  22.5340
  2.330  22.7866
  2.328  22.9719
  2.326  23.1890
  2.324  23.2391
  2.322  23.4879
  2.320  23.6627
  2.318  23.7942
  2.316  23.8861
  2.314  23.9757
  2.312  24.1927
  2.310  24.1459
  2.308  24.1483
  2.306  24.0900
  2.304  24.2392
  2.302  24.2500
  2.300  24.2623
  2.298  24.2275
  2.296  24.3016
  2.294  24.3221
  2.292  24.2048
  2.290  24.1776
  2.288  24.1022
  2.286  24.0369
  2.284  24.0260
  2.282  23.9321
  2.280  23.8313
  2.278  23.7924
  2.276  23.6381
  2.274  23.6630
  2.272  23.5839
  2.270  23.4225
  2.268  23.4183
  2.266  23.2813
  2.264  23.2410
  2.262  23.1053
  2.260  22.9321
  2.258  22.8598
  2.256  22.8193
  2.254  22.6614
  2.252  22.5783
  2.250  22.4718
  2.248  22.3923
  2.246  22.2928
  2.244  22.2014
  2.242  22.1478
  2.240  22.0833
  2.238  21.9141
  2.236  21.8684
  2.234  21.7203
  2.232  21.6095
  2.230  21.6088
  2.228  21.4429
  2.226  21.3314
  2.224  21.2331
  2.222  21.1851
  2.220  21.1192
  2.218  21.0189
  2.216  20.9327
  2.214  20.8908
  2.212  20.8508
  2.210  20.7614
  2.208  20.7440
  2.206  20.7788
  2.204  20.6653
  2.202  20.6165
  2.200  20.6119
  2.198  20.5449
  2.196  20.5905
  2.194  20.7191
  2.192  20.6462
  2.190  20.5035
  2.188  20.5439
  2.186  20.5512
  2.184  20.5896
  2.182  20.6174
  2.180  20.5864
  2.178  20.6039
  2.176  20.5372
  2.174  20.5849
  2.172  20.6389
  2.170  20.4798
  2.168  20.4206
  2.166  20.4263
  2.164  20.3483
  2.162  20.3200
  2.160  20.2786
  2.158  20.1662
  2.156  20.0533
  2.154  20.0094
  2.152  19.9245
  2.150  19.7671
  2.148  19.6509
  2.146  19.5650
  2.144  19.4131
  2.142  19.2583
  2.140  19.1316
  2.138  18.9661
  2.136  18.7428
  2.134  18.5050
  2.132  18.3792
  2.130  18.2884
  2.128  18.0348
  2.126  17.8076
  2.124  17.6930
  2.122  17.5258
  2.120  17.3041
  2.118  17.2811
  2.116  17.1332
  2.114  17.0022
  2.112  16.9992
  2.110  16.8537
  2.108  16.7481
  2.106  16.6445
  2.104  16.5309
  2.102  16.4962
  2.100  16.3755
  2.098  16.3599
  2.096  16.3227
  2.094  16.2703
  2.092  16.1041
  2.090  16.0236
  2.088  16.0350
  2.086  16.0628
  2.084  15.8681
  2.082  15.8910
  2.080  15.7878
  2.078  15.7815
  2.076  15.6570
  2.074  15.6615
  2.072  15.4805
  2.070  15.3414
  2.068  15.3179
  2.066  15.1154
  2.064  15.0119
  2.062  14.8562
  2.060  14.7384
  2.058  14.6362
  2.056  14.5906
  2.054  14.3888
  2.052  14.1929
  2.050  14.1046
  2.048  13.9276
  2.046  13.8826
  2.044  13.7392
  2.042  13.5007
  2.040  13.3771
  2.038  13.2030
  2.036  12.9977
  2.034  12.7806
  2.032  12.4942
  2.030  12.2129
  2.028  11.9384
  2.026  11.6218
  2.024  11.2851
  2.022  10.9665
  2.020  10.6299
  2.018  10.4608
  2.016  10.1685
  2.014   9.9390
  2.012   9.9489
  2.010   9.7733
  2.008   9.7523
  2.006   9.7955
  2.004   9.8055
  2.002   9.8280
  2.000   9.8072
  1.998   9.8111
  1.996   9.6514
  1.994   9.5929
  1.992   9.2628
  1.990   9.1064
  1.988   8.9296
  1.986   8.6214
  1.984   8.5983
  1.982   8.3855
  1.980   8.3267
  1.978   8.0777
  1.976   8.1432
  1.974   8.1328
  1.972   8.2191
  1.970   8.4189
  1.968   8.4846
  1.966   8.8716
  1.964   9.2101
  1.962   9.5703
  1.960  10.0119
  1.958  10.2973
  1.956  10.7346
  1.954  11.0155
  1.952  11.3965
  1.950  11.8108
  1.948  12.1513
  1.946  12.4840
  1.944  13.0835
  1.942  13.4219
  1.940  13.9215
  1.938  14.3689
  1.936  14.8901
  1.934  15.2501
  1.932  15.8214
  1.930  16.4642
  1.928  17.0352
  1.926  17.4338
  1.924  18.1070
  1.922  18.6448
  1.920  19.3133
  1.918  19.9359
  1.916  20.4590
  1.914  21.2164
  1.912  21.7578
  1.910  22.3343
  1.908  22.9491
  1.906  23.7646
  1.904  24.3856
  1.902  24.8377
  1.900  25.4364
  1.898  25.9964
  1.896  26.4949
  1.894  26.8042
  1.892  27.3422
  1.890  27.7926
  1.888  28.2059
  1.886  28.5965
  1.884  28.9008
  1.882  29.1704
  1.880  29.3275
  1.878  29.5956
  1.876  29.9315
  1.874  30.0129
  1.872  30.1841
  1.870  30.3301
  1.868  30.4606
  1.866  30.5387
  1.864  30.5468
  1.862  30.6353
  1.860  30.6670
  1.858  30.6956
  1.856  30.5542
  1.854  30.6130
  1.852  30.6264
  1.850  30.5795
  1.848  30.5092
  1.846  30.5191
  1.844  30.2963
  1.842  30.3839
  1.840  30.3488
  1.838  30.1081
  1.836  29.9784
  1.834  29.9074
  1.832  29.6213
  1.830  29.6271
  1.828  29.5972
  1.826  29.2833
  1.824  29.1103
  1.822  28.9130
  1.820  28.7334
  1.818  28.6599
  1.816  28.5949
  1.814  28.4863
  1.812  28.2610
  1.810  28.1706
  1.808  28.0818
  1.806  28.0310
  1.804  27.8737
  1.802  27.7178
  1.800  27.6364
  1.798  27.3319
  1.796  27.1738
  1.794  27.2038
  1.792  26.9996
  1.790  27.0035
  1.788  26.9272
  1.786  26.9364
  1.784  26.8869
  1.782  26.9349
  1.780  27.0393
  1.778  27.1132
  1.776  27.4033
  1.774  27.4799
  1.772  27.8214
  1.770  27.8723
  1.768  28.0015
  1.766  28.1146
  1.764  28.2493
  1.762  28.3851
  1.760  28.3069
  1.758  28.5008
  1.756  28.5125
  1.754  28.4652
  1.752  28.5466
  1.750  28.5273
  1.748  28.5787
  1.746  28.6789
  1.744  28.6343
  1.742  28.5862
  1.740  28.6890
  1.738  28.7196
  1.736  28.7869
  1.734  28.6898
  1.732  28.7641
  1.730  28.6614
  1.728  28.6938
  1.726  28.7000
  1.724  28.8020
  1.722  28.8081
  1.720  28.9411
  1.718  28.8933
  1.716  28.9067
  1.714  28.9658
  1.712  29.0650
  1.710  29.1100
  1.708  29.1476
  1.706  29.2760
  1.704  29.2459
  1.702  29.2375
  1.700  29.3383
  1.698  29.4078
  1.696  29.5582
  1.694  29.5031
  1.692  29.5852
  1.690  29.6999
  1.688  29.6583
  1.686  29.7807
  1.684  29.9757
  1.682  30.0057
  1.680  29.9673
  1.678  29.9148
  1.676  30.0018
  1.674  30.1418
  1.672  30.0539
  1.670  30.1920
  1.668  30.1774
  1.666  30.0987
  1.664  30.1927
  1.662  30.2142
  1.660  30.2399
  1.658  30.1750
  1.656  30.1035
  1.654  30.1195
  1.652  30.2715
  1.650  30.2375
  1.648  30.1707
  1.646  30.1653
  1.644  30.1391
  1.642  30.1410
  1.640  30.2669
  1.638  30.2790
  1.636  30.2859
  1.634  30.1921
  1.632  30.1249
  1.630  30.1376
  1.628  30.1339
  1.626  30.1979
  1.624  30.2483
  1.622  30.1925
  1.620  30.0749
  1.618  30.0581
  1.616  30.0027
  1.614  30.0044
  1.612  29.9347
  1.610  29.7492
  1.608  29.7562
  1.606  29.6104
  1.604  29.5554
  1.602  29.4126
  1.600  29.1893
  1.598  29.1483
  1.596  28.8525
  1.594  28.6016
  1.592  28.4109
  1.590  28.1930
  1.588  27.8781
  1.586  27.6703
  1.584  27.3984
  1.582  27.0651
  1.580  26.8451
  1.578  26.5634
  1.576  26.2925
  1.574  25.8904
  1.572  25.6569
  1.570  25.4773
  1.568  25.1096
  1.566  24.8701
  1.564  24.5801
  1.562  24.3444
  1.560  24.2577
  1.558  23.9671
  1.556  23.6628
  1.554  23.3710
  1.552  23.0101
  1.550  22.7294
  1.548  22.4400
  1.546  22.0114
  1.544  21.7502
  1.542  21.6488
  1.540  21.3994
  1.538  21.0290
  1.536  20.9909
  1.534  20.9658
  1.532  20.9710
  1.530  21.0353
  1.528  21.0033
  1.526  20.9196
  1.524  20.9011
  1.522  20.7203
  1.520  20.5561
  1.518  20.3451
  1.516  20.1894
  1.514  20.0094
  1.512  19.6973
  1.510  19.5500
  1.508  19.5685
  1.506  19.6088
  1.504  19.5455
  1.502  19.5445
  1.500  19.4830
  1.498  19.5190
  1.496  19.5247
  1.494  19.3129
  1.492  19.0854
  1.490  19.0221
  1.488  18.9417
  1.486  18.8898
  1.484  19.0119
  1.482  18.8523
  1.480  18.8603
  1.478  18.9494
  1.476  19.1306
  1.474  19.3329
  1.472  19.6280
  1.470  20.0359
  1.468  20.4186
  1.466  20.8642
  1.464  21.5204
  1.462  22.1864
  1.460  22.7217
  1.458  23.2829
  1.456  24.0537
  1.454  24.6787
  1.452  25.3871
  1.450  26.0827
  1.448  26.6549
  1.446  27.3858
  1.444  28.2526
  1.442  28.7921
  1.440  29.5067
  1.438  30.3298
  1.436  31.1710
  1.434  31.8688
  1.432  32.6126
  1.430  33.1790
  1.428  33.8446
  1.426  34.5079
  1.424  35.2637
  1.422  35.8260
  1.420  36.2213
  1.418  36.9218
  1.416  37.4244
  1.414  37.9093
  1.412  38.2007
  1.410  38.5796
  1.408  39.0654
  1.406  39.3441
  1.404  39.6298
  1.402  39.9412
  1.400  40.1640
  1.398  40.4843
  1.396  40.7767
  1.394  41.0461
  1.392  41.3537
  1.390  41.5963
  1.388  41.5829
  1.386  41.7691
  1.384  41.9596
  1.382  42.1375
  1.380  42.4698
  1.378  42.6189
  1.376  42.9424
  1.374  42.8488
  1.372  43.0745
  1.370  43.3613
  1.368  43.6131
  1.366  43.7689
  1.364  44.0095
  1.362  44.2066
  1.360  44.4746
  1.358  44.6119
  1.356  44.8416
  1.354  45.0740
  1.352  45.3172
  1.350  45.5155
  1.348  45.6312
  1.346  45.9176
  1.344  45.9738
  1.342  46.1898
  1.340  46.3566
  1.338  46.4902
  1.336  46.6166
  1.334  46.9935
  1.332  46.9025
  1.330  47.0945
  1.328  47.3164
  1.326  47.5814
  1.324  47.5757
  1.322  47.6915
  1.320  47.8137
  1.318  47.9073
  1.316  48.1259
  1.314  48.0603
  1.312  48.0761
  1.310  48.1607
  1.308  48.1923
  1.306  48.1358
  1.304  48.2297
  1.302  48.0828
  1.300  48.0089
  1.298  48.2668
  1.296  48.0267
  1.294  48.1579
  1.292  47.8889
  1.290  47.8135
  1.288  47.6966
  1.286  47.6724
  1.284  47.6093
  1.282  47.4729
  1.280  47.4692
  1.278  47.3378
  1.276  47.1602
  1.274  46.9901
  1.272  46.9152
  1.270  46.7522
  1.268  46.5783
  1.266  46.6499
  1.264  46.5029
  1.262  46.4285
  1.260  46.1858
  1.258  46.3516
  1.256  45.9791
  1.254  46.2404
  1.252  46.2753
  1.250  46.2200
  1.248  46.2122
  1.246  46.1821
  1.244  46.1298
  1.242  46.1377
  1.240  46.0194
  1.238  45.8778
  1.236  45.9499
  1.234  45.9115
  1.232  45.7383
  1.230  45.9150
  1.228  45.6111
  1.226  45.8470
  1.224  45.8714
  1.222  45.8747
  1.220  46.0592
  1.218  46.1132
  1.216  46.1087
  1.214  46.2397
  1.212  46.2767
  1.210  46.1952
  1.208  46.3499
  1.206  46.3791
  1.204  46.3985
  1.202  46.4273
  1.200  46.6086
  1.198  46.7851
  1.196  47.2548
  1.194  47.3760
  1.192  47.7397
  1.190  47.9724
  1.188  48.1617
  1.186  48.4883
  1.184  48.7487
  1.182  49.0408
  1.180  49.1761
  1.178  49.3972
  1.176  49.8172
  1.174  49.9606
  1.172  50.1478
  1.170  50.3467
  1.168  50.5326
  1.166  50.7303
  1.164  50.9577
  1.162  51.0854
  1.160  51.2545
  1.158  51.3979
  1.156  51.4478
  1.154  51.5265
  1.152  51.6321
  1.150  51.6925
  1.148  51.6446
  1.146  51.8150
  1.144  52.0488
  1.142  51.9248
  1.140  52.0128
  1.138  52.0335
  1.136  52.1763
  1.134  52.1765
  1.132  52.3546
  1.130  52.3297
  1.128  52.4387
  1.126  52.5229
  1.124  52.3881
  1.122  52.3632
  1.120  52.4498
  1.118  52.5413
  1.116  52.4744
  1.114  52.6121
  1.112  52.6932
  1.110  52.6409
  1.108  52.6575
  1.106  52.6029
  1.104  52.6778
  1.102  52.7695
  1.100  52.6706
  1.098  52.6409
  1.096  52.6976
  1.094  52.6649
  1.092  52.6080
  1.090  52.7288
  1.088  52.7654
  1.086  52.6774
  1.084  52.7121
  1.082  52.6853
  1.080  52.7427
  1.078  52.7419
  1.076  52.7358
  1.074  52.6640
  1.072  52.6425
  1.070  52.6744
  1.068  52.5747
  1.066  52.5690
  1.064  52.5563
  1.062  52.5644
  1.060  52.6755
  1.058  52.5822
  1.056  52.4347
  1.054  52.4010
  1.052  52.3569
  1.050  52.1540
  1.048  52.2230
  1.046  52.2618
  1.044  52.0668
  1.042  52.0485
  1.040  51.9443
  1.038  51.8010
  1.036  51.8500
  1.034  51.7547
  1.032  51.5760
  1.030  51.4884
  1.028  51.3776
  1.026  51.4004
  1.024  51.3633
  1.022  51.3084
  1.020  51.3917
  1.018  51.3736
  1.016  51.3722
  1.014  51.3721
  1.012  51.3904
  1.010  51.3453
  1.008  51.4580
  1.006  51.5508
  1.004  51.6170
  1.002  51.8240
  1.000  51.9595
  0.998  51.9158
  0.996  51.9911
  0.994  52.2495
  0.992  52.2802
  0.990  52.3606
  0.988  52.4867
  0.986  52.6397
  0.984  52.7820
  0.982  52.9233
  0.980  52.9826
  0.978  53.0347
  0.976  53.2393
  0.974  53.3496
  0.972  53.4419
  0.970  53.4915
  0.968  53.5041
  0.966  53.6072
  0.964  53.6495
  0.962  53.6788
  0.960  53.7168
  0.958  53.7573
  0.956  53.9451
  0.954  54.0406
  0.952  54.0293
  0.950  54.1197
  0.948  54.1341
  0.946  54.1989
  0.944  54.1994
  0.942  54.1472
  0.940  54.1695
  0.938  54.1560
  0.936  54.2615
  0.934  54.3197
  0.932  54.3273
  0.930  54.3407
  0.928  54.2909
  0.926  54.2825
  0.924  54.2876
  0.922  54.2786
  0.920  54.2315
  0.918  54.2509
  0.916  54.2614
  0.914  54.2496
  0.912  54.3118
  0.910  54.3121
  0.908  54.3924
  0.906  54.4302
  0.904  54.3527
  0.902  54.3944
  0.900  54.4556
  0.898  54.5895
  0.896  54.4847
  0.894  54.4617
  0.892  54.6309
  0.890  54.5491
  0.888  54.4506
  0.886  54.5159
  0.884  54.5199
  0.882  54.4280
  0.880  54.7103
  0.878  54.7825
  0.876  54.8153
  0.874  54.7429
  0.872  54.5740
  0.870  54.5388
  0.868  54.5000
  0.866  54.5533
  0.864  54.3288
  0.862  54.3901
  0.860  54.3501
  0.858  54.5512
  0.856  54.7697
  0.854  54.8200
  0.852  54.7522
  0.850  54.7836
  0.848  54.8218
  0.846  54.8052
  0.844  54.8617
  0.842  54.8968
  0.840  54.8852
  0.838  54.8461
  0.836  54.8368
  0.834  54.8713
  0.832  54.8825
  0.830  54.8878
  0.828  54.9089
  0.826  54.8836
  0.824  54.9000
  0.822  54.8814
  0.820  54.9023
  0.818  54.9115
  0.816  54.9300
  0.814  54.9345
  0.812  54.9154
  0.810  54.9087
  0.808  54.9168
  0.806  54.9571
  0.804  54.9090
  0.802  54.8913
  0.800  54.9012
  0.798  54.9329
  0.796  54.9203
  0.794  54.8929
  0.792  54.9325
  0.790  54.9206
  0.788  54.9295
  0.786  54.9665
  0.784  54.9545
  0.782  54.9389
  0.780  54.9470
  0.778  54.9819
  0.776  54.9772
  0.774  54.9775
  0.772  55.0230
  0.770  55.0021
  0.768  55.0206
  0.766  55.0562
  0.764  55.0636
  0.762  55.0700
  0.760  55.0762
  0.758  55.0829
  0.756  55.0924
  0.754  55.0914
  0.752  55.0909
  0.750  55.1156
  0.748  55.1557
  0.746  55.1608
  0.744  55.1311
  0.742  55.1473
  0.740  55.1399
  0.738  55.1646
  0.736  55.1609
  0.734  55.1616
  0.732  55.1741
  0.730  55.1629
  0.728  55.1714
  0.726  55.1863
  0.724  55.1553
  0.722  55.2023
  0.720  55.1767
  0.718  55.1952
  0.716  55.1632
  0.714  55.2027
  0.712  55.1842
  0.710  55.1689
  0.708  55.1674
  0.706  55.1694
  0.704  55.1666
  0.702  55.1930
  0.700  55.1733
  0.698  55.1837
  0.696  55.1586
  0.694  55.1830
  0.692  55.1577
  0.690  55.1838
  0.688  55.1723
  0.686  55.1826
  0.684  55.1863
  0.682  55.1781
  0.680  55.1853
  0.678  55.1712
  0.676  55.1823
  0.674  55.1657
  0.672  55.1708
  0.670  55.1799
  0.668  55.1747
  0.666  55.1586
  0.664  55.1641
  0.662  55.1658
  0.660  55.1768
  0.658  55.1814
  0.656  55.1697
  0.654  55.1275
  0.652  55.1463
  0.650  55.1507
  0.648  55.1382
  0.646  55.1438
  0.644  55.1526
  0.642  55.1351
  0.640  55.1387
  0.638  55.1519
  0.636  55.1284
  0.634  55.1288
  0.632  55.1273
  0.630  55.1066
  0.628  55.1167
  0.626  55.0986
  0.624  55.1033
  0.622  55.1229
  0.620  55.1033
  0.618  55.1038
  0.616  55.0765
  0.614  55.0749
  0.612  55.0652
  0.610  55.0542
  0.608  55.0556
  0.606  55.0176
  0.604  54.9892
  0.602  54.9779
  0.600  54.9964
  0.598  54.9828
  0.596  54.9583
  0.594  54.9375
  0.592  54.9391
  0.590  54.9042
  0.588  54.9031
  0.586  54.8630
  0.584  54.8683
  0.582  54.8201
  0.580  54.7845
  0.578  54.7678
  0.576  54.7358
  0.574  54.7121
  0.572  54.6893
  0.570  54.6543
  0.568  54.6264
  0.566  54.6130
  0.564  54.5710
  0.562  54.5475
  0.560  54.5072
  0.558  54.4687
  0.556  54.4367
  0.554  54.3869
  0.552  54.3685
  0.550  54.3241
  0.548  54.2732
  0.546  54.2467
  0.544  54.1964
  0.542  54.1291
  0.540  54.0825
  0.538  54.0535
  0.536  53.9922
  0.534  53.9286
  0.532  53.8863
  0.530  53.8078
  0.528  53.7617
  0.526  53.6803
  0.524  53.6069
  0.522  53.5645
  0.520  53.4990
  0.518  53.4271
  0.516  53.3481
  0.514  53.2746
  0.512  53.2026
  0.510  53.1155
  0.508  53.0342
  0.506  52.9585
  0.504  52.8924
  0.502  52.7944
  0.500  52.7194
  0.498  52.6317
  0.496  52.5519
  0.494  52.4694
  0.492  52.3883
  0.490  52.3132
  0.488  52.2490
  0.486  52.1653
  0.484  52.0758
  0.482  52.0098
  0.480  51.9628
  0.478  51.8815
  0.476  51.7962
  0.474  51.7410
  0.472  51.6766
  0.470  51.6230
  0.468  51.5613
  0.466  51.4991
  0.464  51.4407
  0.462  51.3729
  0.460  51.3149
  0.458  51.2321
  0.456  51.1426
  0.454  51.0724
  0.452  50.9611
  0.450  50.8523
  0.448  50.7253
  0.446  50.5749
  0.444  50.4004
  0.442  50.2449
  0.440  50.0617
  0.438  49.8493
  0.436  49.6290
  0.434  49.4172
  0.432  49.1742
  0.430  48.9362
  0.428  48.6986
  0.426  48.4689
  0.424  48.2225
  0.422  47.9828
  0.420  47.7396
  0.418  47.4857
  0.416  47.2342
  0.414  46.9813
  0.412  46.7221
  0.410  46.4535
  0.408  46.1951
  0.406  45.9151
  0.404  45.6010
  0.402  45.2773
  0.400  44.9829
