Name:  Nontronite Na0.33Fe2+3(Si,Al)4O10.3H2O
Type:  Mineral
Class:  Silicates
Subclass:  Phyllosilicates (Sheet Silicates); (Smectite Group)
Particle Size:  Fine  (Less than 2 micrometers)
Sample No.:  nontron.1
Owner: JHU
Wavelength Range:  IR
Origin:  Holen Hagen, Germany via the Hunt and Salisbury Collection 
#CMS Ng-1 (purchased from the Clay Mineral Society Repository)
Description: Brown, earthy clay. Less than 2 µm fraction is nontronite, plus a faint 
trace of quartz.  Larger size fraction has abundant quartz.  (Note: Quartz features 
do not show up in spectra of the <2 µm size fraction, either sifted or packed.)



Measurement:  Transmission 
First Column:  X
Second Column:  Y  
X Units:  Wavelength (micrometers)
Y Units:  Transmittance (percent)
First X Value:  25.0442
Last X Value:  2.079
Number of X Values:  2287
Additional Information:  none

25.04420302	55.6639
24.9237955	54.5077
24.80454022	53.0233
24.68642074	51.7733
24.5694209	50.9725
24.45358465	49.3202
24.3387763	47.3944
24.22504094	45.9764
24.11236361	44.4569
24.00072962	42.9647
23.89012454	41.6952
23.78053421	40.4452
23.67194472	39.5624
23.56434244	38.744
23.45771395	38.1503
23.35204611	37.703
23.24732598	37.4062
23.14354087	37.2226
23.04067832	37.5487
22.93872607	37.9628
22.83767211	38.3046
22.7375046	38.4237
22.63821194	38.7538
22.53978272	39.1015
22.44220571	39.2616
22.3454699	39.2597
22.24956446	39.3769
22.15447875	39.2421
22.06020229	39.5878
21.96677306	39.8456
21.87408402	40.3671
21.7821739	40.9413
21.69103293	41.5311
21.60065148	42.0956
21.5110201	42.869
21.42212949	43.664
21.33397051	44.1112
21.24653416	44.6386
21.15981159	45.16
21.0737941	45.2577
20.98847313	44.8905
20.90384024	44.2274
20.81988716	43.2938
20.73660571	41.9774
20.65398787	40.5477
20.57202575	39.2694
20.49071156	38.3241
20.41003766	37.7704
20.3299965	38.0048
20.25058069	38.4022
20.1717829	39.3056
20.09359597	40.3632
20.01601281	41.6054
19.93906621	42.664
19.8626695	43.5526
19.78685599	44.2597
19.71161901	44.7831
19.63695203	45.454
19.56284859	46.0077
19.48930232	46.4608
19.41630698	46.9139
19.34385639	47.5839
19.27194448	48.1376
19.20056526	48.8915
19.12971284	49.5253
19.05938141	50.2909
18.98956523	50.9081
18.92025868	51.8104
18.85145618	52.5585
18.78315226	53.3085
18.71534153	53.9276
18.64801865	54.8133
18.58117838	55.5877
18.51481556	56.5995
18.44892507	57.4129
18.38350191	58.327
18.31854111	59.1737
18.25407111	60.244
18.19002023	61.1278
18.12641726	62.0584
18.06325753	62.7196
18.00053642	63.6844
17.93824937	64.3133
17.8763919	65.2283
17.81495958	65.7791
17.75394803	66.5887
17.69335296	67.0369
17.63317011	67.7811
17.57339529	68.1727
17.51402436	68.867
17.45505324	69.3289
17.39647791	69.9959
17.3382944	70.4695
17.28049878	70.9822
17.2230872	71.2742
17.16605584	71.6658
17.10940093	72.1014
17.05311876	72.5399
16.99720566	72.8074
16.94165801	73.2098
16.88647225	73.5779
16.83167317	74.0291
16.77720046	74.5066
16.72307919	74.8777
16.66930597	75.2801
16.61587747	75.6756
16.56279037	76.0916
16.51004141	76.4031
16.45762737	76.7127
16.40554507	77.0311
16.35379138	77.4656
16.30236319	77.8123
16.25125744	78.3143
16.20047111	78.6741
16.15000121	79.1873
16.0998448	79.4978
16.04999896	80.0291
16.00048641	80.3123
15.95125297	80.7268
15.90232158	81.0183
15.85368947	81.43
15.80535391	81.3572
15.75731218	81.7224
15.70956162	81.7776
15.6620996	81.9842
15.61492349	81.826
15.56803074	82.0369
15.52141878	81.9099
15.47508511	82.0296
15.42902725	81.9163
15.38324273	82.0428
15.33772913	81.8616
15.29248405	81.865
15.24750513	81.6932
15.20279002	81.5818
15.1583364	81.2537
15.114142	80.9417
15.07020455	80.5076
15.02652181	80.159
14.98309158	79.8011
14.93991168	79.365
14.89700213	78.9339
14.85431629	78.639
14.81187438	78.3924
14.76967431	78.305
14.72771402	78.4866
14.68599147	78.7737
14.64450465	79.115
14.60325156	79.5511
14.56223023	80.178
14.52143873	80.7351
14.48087511	81.3709
14.44053748	81.8304
14.40042395	82.5076
14.36053266	82.8318
14.32086177	83.4256
14.28140946	83.7796
14.24217393	84.406
14.20315338	84.6521
14.16434607	85.1648
14.12575025	85.3513
14.0873642	85.9124
14.0491862	86.0427
14.01121458	86.449
13.97344765	86.5374
13.93590321	86.8631
13.89854065	86.9514
13.8613779	87.1218
13.82441336	87.1892
13.78764544	87.2815
13.75107258	87.2488
13.71469324	87.2757
13.67850587	87.2517
13.64250897	87.2132
13.60670103	87.1648
13.57108057	87.1096
13.53564612	86.9905
13.50039624	86.8865
13.46532947	86.676
13.4304444	86.4417
13.39573962	86.2058
13.36121373	85.9451
13.32686536	85.6468
13.29269314	85.1892
13.25869572	85.012
13.22487175	84.6936
13.19121992	84.4358
13.15773892	84.0125
13.12442745	83.8533
13.09130135	83.3387
13.05832501	83.158
13.02551438	82.7132
12.99286821	82.4041
12.96038529	81.5955
12.92806437	81.0623
12.89590426	80.4183
12.86390376	79.9803
12.83206168	79.5125
12.80037684	79.3064
12.7688481	79.0647
12.73747429	78.9861
12.70625427	78.8948
12.67518693	78.8284
12.64427113	78.7386
12.61350579	78.6658
12.58290562	78.3699
12.55243781	78.1775
12.52211719	77.8416
12.4919427	77.5945
12.46191328	77.2713
12.43202789	76.8519
12.40228549	76.2781
12.37268507	75.575
12.34322561	74.7449
12.31390609	73.8836
12.28472554	73.1395
12.25568296	72.4886
12.22677738	72.1492
12.19800782	71.9534
12.16937334	72.1624
12.14087298	72.4339
12.1125058	73.0218
12.08427087	73.5281
12.05616727	74.244
12.02819409	74.4852
12.00035041	74.5799
11.97263534	74.3519
11.945048	73.9949
11.9175875	73.4402
11.8902671	72.9793
11.86305761	72.5887
11.83597236	72.3426
11.80901051	72.244
11.78217122	72.3694
11.75545365	72.5804
11.72885698	72.7498
11.70238038	72.6824
11.67602305	72.533
11.64978419	72.3226
11.62366299	72.0594
11.59765866	71.6336
11.57177043	71.0945
11.54599752	70.5018
11.52033916	69.9959
11.49479458	69.4808
11.46936304	69.0511
11.44404378	68.866
11.41883606	68.7191
11.39373914	68.7781
11.3687523	68.7625
11.34387482	69.0164
11.31910597	69.1365
11.29444505	69.2069
11.26990406	69.0775
11.24545684	69.1312
11.22111545	68.9227
11.19687921	68.7235
11.17274743	68.2957
11.14871946	67.848
11.12479461	67.1585
11.10097222	66.512
11.07725165	65.866
11.05363222	65.0413
11.03011331	64.1712
11.00669427	63.2982
10.98337447	62.3455
10.96015327	61.4305
10.93703005	60.6922
10.9140042	59.9911
10.89107509	59.1654
10.86824213	58.2362
10.8455047	57.4618
10.82286221	56.6551
10.80031407	55.9183
10.77785969	55.3534
10.75549848	54.704
10.73322986	53.8295
10.71106474	53.1141
10.68897956	52.513
10.66698525	51.9769
10.64508128	51.6171
10.62326708	50.5472
10.6015421	49.5199
10.5799058	48.7992
10.55835763	47.9613
10.53689705	47.1337
10.51552354	46.2296
10.49423657	45.3954
10.4730356	44.4921
10.45192012	43.6222
10.43088962	42.7765
10.40994358	41.9162
10.38908149	41.0722
10.36830285	40.2411
10.34760717	39.4474
10.32699394	38.6447
10.30646267	37.8654
10.28601287	37.1132
10.26564407	36.3664
10.24535578	35.6073
10.22514752	34.871
10.20502924	34.131
10.1849796	33.4423
10.16500858	32.7577
10.14511574	32.0588
10.12530059	31.3781
10.10556271	30.7255
10.08590162	30.1405
10.0663169	29.5654
10.04680808	29.0265
10.02737473	28.537
10.00801642	28.0917
9.98873271	27.7089
9.969523168	27.3283
9.950387369	27.0031
9.931324888	26.6952
9.912335307	26.4172
9.893427994	26.205
9.874582922	26.049
9.855809507	25.9189
9.83710734	25.7892
9.818476015	25.7123
9.799915133	25.6105
9.781424293	25.5461
9.7630031	25.467
9.744651161	25.4377
9.726368087	25.4494
9.70815349	25.5031
9.690006986	25.5666
9.671928196	25.7114
9.653916739	25.8935
9.635972241	26.2075
9.618094328	26.6066
9.600282632	27.0556
9.582536785	27.5461
9.564856422	28.0907
9.547241181	28.6545
9.529690704	29.2863
9.512204634	29.9911
9.494782617	30.6808
9.477424301	31.3752
9.460138288	32.1005
9.4429063	32.8713
9.425736975	33.6466
9.408629972	34.4289
9.391584952	35.2607
9.374601579	36.0863
9.35767952	36.933
9.340818443	37.7953
9.324018018	38.5854
9.307277919	39.4037
9.290597822	40.1952
9.273977405	40.9896
9.257416348	41.7225
9.240914333	42.4701
9.224471046	43.1049
9.208086173	43.7518
9.191759404	44.3353
9.17549043	44.8646
9.159278945	45.3617
9.143124645	45.8407
9.127027227	46.3051
9.110986392	46.6791
9.095001842	47.0765
9.079073281	47.4672
9.06320863	47.826
9.04739114	48.1312
9.031628764	48.5209
9.015921215	48.8632
9.000268208	49.2513
8.984669459	49.5966
8.969124685	50.0287
8.953633608	50.4198
8.93819595	50.8016
8.922811435	51.1971
8.907479789	51.6229
8.89220074	51.9979
8.876974017	52.4505
8.861799353	52.8754
8.846676481	53.3641
8.831605135	53.8487
8.816585054	54.3378
8.801615977	54.836
8.786697643	55.4288
8.771829795	55.9842
8.757012178	56.5675
8.742244536	57.1388
8.727526619	57.7381
8.712858175	58.3644
8.69824652	59.0301
8.683676252	59.6456
8.669154714	60.2284
8.654681663	60.8778
8.640256858	61.5399
8.625880055	62.1839
8.611551018	62.6798
8.597269507	63.2833
8.583035287	63.7889
8.568848124	64.3309
8.554707784	64.793
8.540614036	65.3868
8.52656665	65.9139
8.512565398	66.4669
8.498610052	67.0225
8.484700388	67.6407
8.470836182	68.1807
8.45701721	68.7716
8.443243252	69.3157
8.429514089	69.8709
8.415829502	70.4112
8.402189274	70.9561
8.388593191	71.4022
8.375041038	71.8721
8.361539594	72.3626
8.348074642	72.8389
8.334652987	73.2508
8.32127442	73.6614
8.307938734	74.0938
8.294645723	74.4932
8.281395183	74.8826
8.268186911	75.2156
8.255020704	75.6004
8.241896361	75.9231
8.228813685	76.2879
8.215772476	76.6087
8.202772537	76.9842
8.189813674	77.2967
8.176895691	77.699
8.164018395	77.9983
8.151188239	78.4012
8.138391724	78.7356
8.125635323	79.0867
8.11291885	79.3631
8.100242116	79.7015
8.087604937	79.9854
8.075007126	80.263
8.062448501	80.5462
8.049928879	80.8299
8.037448078	81.0408
8.025005918	81.2659
8.012602221	81.5586
8.000236807	81.8008
7.9879095	82.0508
7.975620124	82.2998
7.963368505	82.6065
7.951154468	82.9305
7.938977841	83.2405
7.926838452	83.4173
7.914736131	83.6258
7.902670708	83.7644
7.890642014	83.9099
7.878649883	83.9798
7.866694148	84.1651
7.854780812	84.2869
7.842897355	84.4534
7.831049799	84.5362
7.819237984	84.7205
7.807461747	84.8479
7.795720929	85.0501
7.784015369	85.1692
7.772344909	85.3194
7.760709391	85.4275
7.749108659	85.572
7.737542556	85.6873
7.726010929	85.8445
7.714513623	85.9619
7.703050485	86.0655
7.691621363	86.2002
7.680226106	86.3028
7.668864563	86.4358
7.657536586	86.5635
7.646242025	86.6858
7.634980733	86.7874
7.623752563	86.9336
7.61255737	87.0271
7.601395008	87.199
7.590265333	87.2764
7.579173946	87.4168
7.568109199	87.4881
7.557076711	87.6572
7.546076342	87.742
7.535107952	87.8816
7.524171401	87.9385
7.51326655	88.0774
7.502393263	88.1106
7.491551403	88.2473
7.480740833	88.3186
7.469961418	88.4519
7.459213023	88.4583
7.448495516	88.5508
7.437808762	88.6153
7.42715263	88.7092
7.416526989	88.7774
7.405931707	88.8435
7.395366655	88.9314
7.384831703	88.9846
7.374326724	89.0867
7.363851589	89.1397
7.353406171	89.2588
7.342990345	89.3203
7.332603984	89.4229
7.322252325	89.4382
7.311924506	89.5569
7.30162578	89.6033
7.291356025	89.7166
7.281115117	89.71
7.270902937	89.8157
7.260719363	89.8269
7.250564275	89.9544
7.240437554	89.9407
7.230339081	90.0293
7.220268738	90.031
7.210226408	90.2129
7.200211974	90.304
7.19022532	90.4304
7.18026633	90.5222
7.17033489	90.6882
7.160436013	90.7527
7.150559317	90.8328
7.140709829	90.9031
7.130887439	90.9473
7.121092034	90.991
7.111323503	90.9895
7.101581735	90.9968
7.091866622	90.9763
7.082178053	91.0217
7.07251592	91.0134
7.062880115	91.0957
7.053270531	91.1272
7.04368706	91.2566
7.034129597	91.2009
7.024598035	91.2879
7.01509227	91.3201
7.005612196	91.4453
6.99615771	91.4495
6.986728709	91.6106
6.977325089	91.6751
6.967946748	91.8457
6.958593585	91.9114
6.949265497	91.9863
6.939962385	92.0227
6.930688952	92.114
6.921435478	92.1521
6.912206681	92.219
6.903002461	92.2522
6.893822721	92.2556
6.884667364	92.2793
6.875536292	92.282
6.866429409	92.4102
6.857346618	92.3884
6.848287825	92.332
6.839252935	92.2654
6.830241852	92.3528
6.821254483	92.3416
6.812290735	92.3757
6.803350514	92.3386
6.794433728	92.4922
6.785540285	92.5137
6.776670093	92.5625
6.767823062	92.5071
6.7589991	92.614
6.750198118	92.5925
6.741420026	92.6682
6.732664735	92.6787
6.723932156	92.8171
6.715226709	92.8738
6.706539278	92.9424
6.697874296	92.9382
6.689231675	93.0222
6.680611329	93.094
6.672013173	93.1052
6.663437121	93.1394
6.654883087	93.1416
6.646350987	93.2756
6.637840737	93.3953
6.629352253	93.449
6.620885451	93.3359
6.612440248	93.4358
6.604016563	93.4441
6.595614312	93.5222
6.587233415	93.4902
6.578873789	93.6248
6.570535354	93.6536
6.56221803	93.657
6.553921736	93.6267
6.545646392	93.665
6.537391921	93.5879
6.529158241	93.6384
6.520945276	93.6379
6.512757189	93.7151
6.504585407	93.7805
6.496434107	93.9753
6.488303211	93.9822
6.480192643	93.9385
6.472102327	93.9377
6.464032186	93.8938
6.455982145	93.886
6.44795213	93.8877
6.439942066	94.0088
6.431951879	94.0403
6.423981494	94.1687
6.416030838	94.2346
6.408099838	94.2888
6.400188422	94.1084
6.392296516	94.125
6.384424048	94.0469
6.376570948	94.1062
6.368737143	94.092
6.360922563	94.1116
6.353127136	94.0332
6.345350793	94.1501
6.337593464	94.0791
6.329855078	93.9954
6.322139564	93.9236
6.314438848	93.9143
6.30675687	93.8591
6.29909356	93.8254
6.291448851	93.7568
6.283822676	93.656
6.276214965	93.5732
6.268625654	93.4309
6.261054675	93.3279
6.253501961	93.1248
6.245967447	92.9805
6.238451067	92.7383
6.230952756	92.5283
6.223472449	92.1799
6.21601008	91.929
6.208565585	91.5098
6.201142747	91.1736
6.1937338	90.739
6.186342535	90.5051
6.178968891	90.0723
6.171612803	89.7571
6.164274209	89.4299
6.156953047	89.2048
6.149649255	88.9807
6.14236277	88.9219
6.135093533	88.9346
6.12784148	89.0615
6.120606552	89.2188
6.113388688	89.3611
6.106187828	89.4949
6.099003911	89.6338
6.091836878	89.9072
6.084686669	90.1426
6.077553226	90.531
6.070436489	90.8191
6.063336399	91.1321
6.056252899	91.449
6.049185931	91.9336
6.042135436	92.0671
6.035101357	92.2764
6.02808727	92.4763
6.021085843	92.9072
6.01410066	93.2402
6.007131667	93.614
6.000178805	93.8232
5.99324202	94.0916
5.986321256	94.1973
5.979416457	94.2634
5.972527568	94.2502
5.965654534	94.2383
5.9587973	94.1511
5.951955813	94.1423
5.945130017	94.1758
5.938319859	94.2415
5.931525286	94.2459
5.924746243	94.094
5.917982678	94.1003
5.911234538	94.0335
5.904501769	94.0994
5.89778432	94.1624
5.891082139	94.2981
5.884395172	94.2598
5.87772337	94.3552
5.871066679	94.2195
5.864428488	94.2996
5.85780186	94.2517
5.851190191	94.3547
5.84459343	94.3281
5.838011527	94.4355
5.831444431	94.4817
5.824892094	94.6318
5.818354465	94.6433
5.811831494	94.634
5.805323133	94.6162
5.798829332	94.6379
5.792350043	94.6855
5.785885217	94.7219
5.779434806	94.793
5.772998761	94.8262
5.766577035	94.9563
5.760169579	94.8884
5.753776347	94.9023
5.747397291	94.885
5.741032364	94.9143
5.734681519	94.8411
5.728344709	94.9248
5.722021888	94.8877
5.715713009	94.9558
5.709421287	94.8987
5.703140149	94.9319
5.696872816	94.8535
5.690619242	94.905
5.684379382	94.8626
5.678153192	94.9265
5.671940626	94.8958
5.66574164	94.9075
5.659556189	94.9197
5.653384229	94.9678
5.647225716	94.991
5.641080605	95.0232
5.634948854	95.0198
5.628830419	94.9666
5.622725256	94.9983
5.616633323	94.9531
5.610557723	94.9934
5.604492113	94.9558
5.598439603	95.0156
5.592400152	94.9504
5.586373717	95.0022
5.580360257	95.011
5.574359729	95.0862
5.568372092	94.9922
5.562397304	95.0391
5.556435324	94.9978
5.550486112	95.0625
5.544549625	94.9895
5.538625823	95.033
5.532714665	94.9866
5.526816112	95.0498
5.520930122	95.0291
5.515056656	95.0479
5.509195674	95.0369
5.503347136	95.0664
5.497511002	95.094
5.491687233	95.0703
5.48587579	95.1072
5.480076633	95.1064
5.474289725	95.1729
5.468518015	95.1077
5.462755479	95.1897
5.457005076	95.1384
5.451266765	95.2244
5.445540511	95.1777
5.439826274	95.2654
5.434124016	95.2354
5.428433701	95.3279
5.422755291	95.3245
5.417088748	95.3679
5.411434035	95.3047
5.405791116	95.3184
5.400159953	95.2693
5.394540509	95.3047
5.388932749	95.2959
5.383336635	95.3376
5.377752132	95.3213
5.372179203	95.3533
5.366617813	95.377
5.361067925	95.4036
5.355529504	95.4558
5.350002515	95.4773
5.344486921	95.5303
5.338982689	95.5173
5.333492627	95.5691
5.328011006	95.5088
5.32254064	95.5969
5.317081497	95.5378
5.31163354	95.6365
5.306196736	95.5537
5.30077105	95.6301
5.295356449	95.6182
5.289952898	95.7051
5.284560364	95.6628
5.279178813	95.7205
5.273808212	95.7029
5.268448526	95.7244
5.263099724	95.7229
5.257761771	95.7666
5.252434635	95.7922
5.247118283	95.8135
5.241812682	95.8284
5.236517799	95.8328
5.231233603	95.8616
5.225960061	95.8691
5.220697141	95.9062
5.21544481	95.8955
5.210203036	95.9492
5.204974498	95.926
5.19975374	95.9963
5.194543444	95.9316
5.189343579	95.9866
5.184154115	95.9675
5.178975019	96.0664
5.173806261	95.9971
5.168647809	96.0745
5.163499634	96.033
5.158361704	96.0928
5.153233989	96.0439
5.148116459	96.1184
5.143009082	96.084
5.137911829	96.1125
5.13282467	96.1111
5.127747575	96.1396
5.122680514	96.1428
5.117623458	96.1453
5.112576376	96.196
5.107539239	96.1804
5.102512018	96.2256
5.097494683	96.1973
5.092487206	96.2659
5.087489558	96.2273
5.082504292	96.2952
5.077526209	96.2346
5.072557868	96.3008
5.06759924	96.2478
5.062650297	96.321
5.057711011	96.2932
5.052781354	96.3552
5.047861297	96.3069
5.042950812	96.3752
5.038049872	96.3203
5.033158448	96.3809
5.028276513	96.3779
5.023404039	96.4226
5.018541	96.3791
5.013687367	96.3955
5.008843113	96.4075
5.004010715	96.4014
4.999185133	96.4265
4.994368849	96.4089
4.989561837	96.4297
4.984764069	96.4021
4.979975518	96.4646
4.97519616	96.4395
4.970425966	96.4797
4.96566491	96.4446
4.960912967	96.5139
4.95617011	96.4695
4.951436313	96.5452
4.94671155	96.4893
4.941995795	96.5417
4.937289023	96.4841
4.932591209	96.5232
4.927902325	96.4766
4.923222347	96.5144
4.918551251	96.4661
4.913889009	96.5193
4.909235598	96.499
4.904590991	96.5029
4.899955165	96.5039
4.895328095	96.5117
4.890712146	96.5374
4.886102507	96.5088
4.88150155	96.5447
4.876909249	96.532
4.87232558	96.5896
4.86775052	96.5261
4.863184043	96.5811
4.858626126	96.5273
4.854076745	96.5986
4.849535875	96.5361
4.845003493	96.6025
4.840479575	96.5666
4.835964098	96.6152
4.831457037	96.553
4.826958369	96.623
4.822468072	96.5935
4.81798612	96.6338
4.813512492	96.5693
4.809047164	96.5974
4.804590113	96.5896
4.800141316	96.6094
4.79570075	96.5989
4.791268392	96.5693
4.78684422	96.6074
4.782430498	96.5798
4.778022625	96.5759
4.773622869	96.5515
4.769231209	96.5879
4.764847623	96.5535
4.760472086	96.6013
4.756104579	96.5671
4.751745078	96.6316
4.747393562	96.5974
4.743050009	96.6377
4.738714396	96.584
4.734386703	96.6423
4.730066907	96.5918
4.725754987	96.6384
4.721450921	96.5847
4.717154688	96.6338
4.712866266	96.6006
4.708585635	96.6501
4.704312773	96.6199
4.700047658	96.6543
4.695790271	96.6531
4.691540589	96.6687
4.687298593	96.6406
4.68306426	96.6348
4.67883976	96.6721
4.67462069	96.6475
4.670409221	96.6365
4.666205334	96.6091
4.662009009	96.6602
4.657820224	96.6316
4.65363896	96.6804
4.649465195	96.6277
4.645298911	96.6768
4.641140087	96.626
4.636988702	96.7205
4.632844738	96.6543
4.628708174	96.6816
4.62457899	96.6648
4.620457167	96.7082
4.616342684	96.6697
4.612235523	96.7676
4.608135664	96.8249
4.604043086	96.7978
4.599957772	96.7224
4.595879702	96.6912
4.591808856	96.679
4.587745215	96.6951
4.58368876	96.7175
4.57964157	96.6843
4.575599426	96.6882
4.571564412	96.6814
4.567536508	96.7117
4.563515696	96.6562
4.559501956	96.6946
4.555495271	96.6533
4.551495621	96.6894
4.547502989	96.6436
4.543517355	96.7295
4.539538701	96.6687
4.535567009	96.699
4.531602261	96.6501
4.527644439	96.6699
4.523693523	96.6208
4.519749497	96.6758
4.515814382	96.6465
4.511884077	96.655
4.507960608	96.6436
4.504043956	96.6609
4.500134104	96.6396
4.496231034	96.6111
4.492334729	96.6384
4.488445171	96.634
4.484562343	96.6338
4.480686226	96.6269
4.476816804	96.6658
4.47295406	96.6506
4.469097975	96.6836
4.465248534	96.6257
4.461405718	96.666
4.45756951	96.6208
4.453739894	96.677
4.449916853	96.6172
4.44610037	96.6755
4.442290427	96.6584
4.438487009	96.6794
4.434690097	96.6436
4.430899676	96.6843
4.42711573	96.6689
4.423340197	96.6768
4.419569145	96.6533
4.415804518	96.6807
4.412046298	96.6562
4.408294471	96.6697
4.404549018	96.6921
4.400809925	96.6719
4.397077175	96.6853
4.393350752	96.6797
4.389630639	96.7263
4.385916821	96.6853
4.382209282	96.7422
4.378508006	96.7117
4.374812977	96.7588
4.371124179	96.699
4.367441596	96.7451
4.363765214	96.7187
4.360095015	96.739
4.356430985	96.668
4.352773108	96.6963
4.349121369	96.6348
4.345475751	96.6638
4.341836241	96.6621
4.338202821	96.6843
4.334577357	96.6394
4.330956072	96.6531
4.327340832	96.6533
4.323731623	96.658
4.320128429	96.6941
4.316531235	96.6768
4.312940028	96.6589
4.30935479	96.6394
4.305775509	96.6843
4.302202168	96.6697
4.298634754	96.6833
4.29507325	96.6621
4.291517644	96.6951
4.287967919	96.6758
4.284424062	96.698
4.280886058	96.6526
4.277353892	96.6794
4.27382755	96.6511
4.270307018	96.6894
4.266792281	96.6523
4.263283325	96.7002
4.259780136	96.6748
4.256282699	96.6921
4.252791	96.6521
4.249306832	96.7039
4.245826565	96.6951
4.242351994	96.7058
4.238883105	96.7283
4.235419885	96.7217
4.231962319	96.6914
4.228510393	96.7031
4.225064094	96.7322
4.221623408	96.655
4.218188322	96.6592
4.214758821	96.6377
4.211334892	96.6719
4.207916522	96.6201
4.204503696	96.6631
4.201096402	96.6316
4.197694626	96.6689
4.194300114	96.6172
4.190909331	96.6621
4.187524026	96.6628
4.184144186	96.6853
4.180769797	96.6516
4.177400846	96.6658
4.174037321	96.6523
4.170679208	96.6941
4.167326493	96.6433
4.163979165	96.6064
4.16063721	96.6103
4.157300615	96.5986
4.153969367	96.6094
4.150643454	96.5749
4.147322862	96.5818
4.144007579	96.5662
4.140697592	96.5613
4.137392888	96.5261
4.134093455	96.5725
4.130799281	96.55
4.127510352	96.5847
4.124226656	96.5593
4.120948181	96.6018
4.117674914	96.5706
4.114408535	96.6057
4.111145645	96.5613
4.107887925	96.5969
4.104635365	96.5798
4.101387951	96.6091
4.098145671	96.5769
4.094908514	96.5647
4.091676466	96.53
4.088449517	96.5403
4.085227653	96.531
4.082010864	96.5085
4.078799136	96.5051
4.075592459	96.5124
4.072390819	96.5124
4.069194206	96.4758
4.066002607	96.5276
4.062816011	96.4705
4.059634406	96.4871
4.056457779	96.446
4.053286121	96.4998
4.050119418	96.4724
4.046957659	96.4812
4.043800833	96.446
4.040648928	96.4622
4.037503563	96.4309
4.034361463	96.4665
4.031224251	96.4285
4.028091913	96.4407
4.024964439	96.4426
4.021841819	96.4622
4.018724039	96.4519
4.01561109	96.4446
4.012502959	96.4338
4.009399637	96.4495
4.00630111	96.4573
4.00320737	96.3948
4.000118404	96.4065
3.997034201	96.3762
3.99395475	96.4036
3.990880041	96.3596
3.987810062	96.3806
3.984744803	96.3035
3.981684252	96.3127
3.9786284	96.2703
3.975577234	96.3279
3.972530744	96.3181
3.96948892	96.3455
3.966451751	96.2795
3.963420797	96.3249
3.960392903	96.3103
3.957369631	96.3752
3.954350972	96.3513
3.951336915	96.3547
3.948327449	96.3289
3.945322564	96.3542
3.942322249	96.3494
3.939326493	96.3572
3.936335288	96.363
3.933348621	96.3411
3.930366483	96.3254
3.927388864	96.2571
3.924415753	96.3103
3.921447139	96.3015
3.918483014	96.303
3.915523366	96.2541
3.912568186	96.2942
3.909617463	96.2507
3.906671188	96.2947
3.90372935	96.2624
3.900791939	96.3142
3.897858945	96.3113
3.894930359	96.3049
3.892007684	96.2244
3.889087881	96.2639
3.886172454	96.2375
3.883261396	96.2239
3.880354695	96.1794
3.877452343	96.1482
3.874554329	96.155
3.871660644	96.1482
3.868771278	96.0989
3.865886222	96.0627
3.863005465	96.1062
3.860128998	96.116
3.857256812	96.1199
3.854388896	96.0842
3.851525243	96.1057
3.848665841	96.0886
3.845812161	96.1423
3.842961232	96.0759
3.840114528	96.1213
3.837272037	96.0774
3.834433752	96.1233
3.831599662	96.0486
3.828769759	96.0847
3.825944033	96.0652
3.823122474	96.0803
3.820305074	96.0486
3.817491824	96.0676
3.814682714	96.0623
3.811877735	96.0364
3.809076878	96.0217
3.806280134	96.0051
3.803487494	96.0203
3.800698949	96.0027
3.797914489	95.9631
3.795134107	95.9436
3.792357792	95.9807
3.789585537	95.9495
3.786817332	95.9436
3.784053167	95.9138
3.781293036	95.9343
3.778538356	95.9075
3.77578626	95.9319
3.773038171	95.8938
3.770294079	95.9099
3.767553976	95.8811
3.764817852	95.8811
3.7620857	95.821
3.759357511	95.8459
3.756633275	95.8289
3.753912985	95.8538
3.751196632	95.8298
3.748484207	95.8123
3.745775701	95.8015
3.743071107	95.8005
3.740370416	95.7668
3.73767362	95.7444
3.734980709	95.759
3.732291676	95.7595
3.729606512	95.7527
3.726925208	95.7205
3.724247758	95.7444
3.721574151	95.699
3.718904381	95.7126
3.716238438	95.6335
3.713577694	95.6663
3.71091938	95.6433
3.708264869	95.6677
3.705614154	95.571
3.702967225	95.5857
3.700324074	95.573
3.697684695	95.5793
3.695049078	95.5281
3.692417215	95.5359
3.689789099	95.531
3.687164722	95.5193
3.684544075	95.4968
3.68192715	95.5066
3.67931394	95.4993
3.676704437	95.4719
3.674098633	95.467
3.67149652	95.4358
3.66889809	95.4514
3.666303336	95.4314
3.663712249	95.4255
3.661124822	95.3557
3.658541047	95.3767
3.655960916	95.3616
3.653384422	95.365
3.65081289	95.3381
3.648243644	95.3533
3.645678012	95.2991
3.643115986	95.3269
3.640557559	95.2576
3.638002722	95.2639
3.635451469	95.2468
3.632903791	95.2292
3.630359682	95.1697
3.627819133	95.1936
3.625282138	95.1545
3.622748688	95.1433
3.620218777	95.1414
3.617692397	95.1101
3.615169541	95.1252
3.6126502	95.1008
3.610135673	95.0793
3.607623341	95.0779
3.605114504	95.1062
3.602609154	95.0925
3.600107283	95.0886
3.597608885	95.0564
3.595113953	95.0789
3.592622478	95.0398
3.590134454	95.0535
3.587649874	95.0251
3.585168731	95.0295
3.582691017	94.9929
3.580216725	94.9758
3.577745848	94.9031
3.57527838	94.9109
3.572814313	94.8953
3.57035364	94.8992
3.567896354	94.8416
3.565442448	94.8689
3.562991916	94.8562
3.560544749	94.8289
3.558100942	94.7893
3.555660487	94.7947
3.553223378	94.7986
3.550790868	94.7659
3.548360427	94.7791
3.545933311	94.7454
3.543509513	94.7517
3.541089027	94.6814
3.538671844	94.6765
3.53625796	94.6292
3.533847367	94.658
3.531440058	94.6169
3.529036026	94.5945
3.526635266	94.5647
3.524237769	94.5457
3.52184353	94.5374
3.519452542	94.5295
3.517064798	94.4959
3.514680292	94.5076
3.512299017	94.4968
3.509920967	94.5032
3.507546135	94.4939
3.505174514	94.4646
3.502806098	94.4519
3.500440881	94.4041
3.498078855	94.3943
3.495720015	94.3401
3.493365575	94.3445
3.491013085	94.2971
3.488663762	94.3284
3.486317598	94.2605
3.483974588	94.28
3.481634725	94.2566
3.479298003	94.2546
3.476964415	94.1897
3.474633956	94.2097
3.472306619	94.156
3.469982397	94.198
3.467661284	94.1882
3.465343275	94.2332
3.463028363	94.1599
3.460716541	94.1252
3.458407804	94.094
3.456102146	94.1199
3.453799559	94.1116
3.451500039	94.0935
3.449203579	94.0125
3.446910172	93.9807
3.444619814	94.0037
3.442332497	93.9627
3.440048216	93.948
3.437768146	93.9128
3.435489916	93.9265
3.433214704	93.887
3.430942504	93.9128
3.428673309	93.8855
3.426407114	93.8738
3.424143913	93.8342
3.421883699	93.7722
3.419626467	93.6936
3.417372212	93.6785
3.415120926	93.6189
3.412872605	93.5945
3.410627242	93.5134
3.408384831	93.5056
3.406145367	93.489
3.403908845	93.4646
3.401675257	93.4197
3.399444599	93.4358
3.397216864	93.4695
3.394992047	93.51
3.392770143	93.5017
3.390551144	93.4597
3.388335047	93.4851
3.386121844	93.4255
3.383912676	93.4265
3.381705245	93.3816
3.379500692	93.4011
3.377299012	93.4065
3.375100198	93.4373
3.372904246	93.3845
3.370711149	93.4475
3.368520903	93.3303
3.366333501	93.2795
3.364148938	93.2556
3.361967208	93.2449
3.359788306	93.1643
3.357612227	93.1155
3.355438965	93.0764
3.353268515	93.0588
3.35110087	92.9988
3.348937148	92.988
3.346775098	92.9705
3.344615837	92.9319
3.342459362	92.9182
3.340305665	92.8811
3.338154741	92.887
3.336006587	92.8533
3.333861195	92.8279
3.33171856	92.7898
3.329578678	92.7439
3.327441544	92.6775
3.32530715	92.6799
3.323175494	92.6389
3.321046568	92.5681
3.318920368	92.5427
3.31679689	92.5789
3.314676126	92.553
3.312558073	92.5647
3.310442725	92.4861
3.308330077	92.4705
3.306220124	92.4334
3.304112861	92.4021
3.302008281	92.3591
3.299906382	92.3386
3.297808244	92.3416
3.295711686	92.3455
3.293617792	92.3108
3.291526557	92.2644
3.289437976	92.2468
3.287352045	92.1873
3.285268756	92.1502
3.283188107	92.0789
3.281110091	92.0486
3.279034705	92.0164
3.276961942	92.0178
3.274891798	91.9197
3.272824267	91.9026
3.270759346	91.8396
3.268697029	91.8035
3.26663731	91.7224
3.264580186	91.6902
3.262525652	91.615
3.260473701	91.6033
3.25842433	91.5842
3.256377534	91.5213
3.254333308	91.4744
3.252291646	91.4456
3.250252545	91.3611
3.248217054	91.2947
3.246183057	91.2879
3.244151606	91.2898
3.242122696	91.2527
3.240096322	91.1643
3.238072479	91.135
3.236051163	91.1116
3.234032369	91.0413
3.232016093	90.9793
3.230002329	90.969
3.227991073	90.8928
3.22598232	90.8718
3.223976065	90.8103
3.221972305	90.7927
3.219971033	90.7205
3.217972246	90.6638
3.215975939	90.5613
3.213982108	90.5545
3.211990747	90.4885
3.210001852	90.4402
3.208015419	90.346
3.206031443	90.3069
3.204049919	90.2595
3.202070843	90.219
3.200095235	90.116
3.19812104	90.1062
3.196149279	90.0388
3.194179949	89.9319
3.192213043	89.8738
3.190248559	89.865
3.18828649	89.8499
3.186326834	89.7586
3.184369586	89.7048
3.18241474	89.6629
3.180462293	89.6336
3.17851224	89.5496
3.176564577	89.4578
3.1746193	89.3631
3.172676403	89.3162
3.170735883	89.2586
3.168797736	89.1355
3.166861956	89.0994
3.164928541	89.0681
3.162997484	88.9763
3.161068783	88.9007
3.159142432	88.8181
3.157218427	88.8103
3.155296765	88.74
3.153378435	88.6814
3.151461443	88.6101
3.14954678	88.5882
3.147634443	88.574
3.145724426	88.4861
3.143816726	88.3714
3.141911338	88.322
3.140008258	88.3172
3.138107483	88.2073
3.136209007	88.1716
3.134312827	88.0862
3.132418938	88.0784
3.130527337	88.0408
3.128638019	87.9534
3.126750981	87.8831
3.124866217	87.8225
3.122984699	87.7263
3.121104471	87.6912
3.119226507	87.6233
3.1173508	87.5862
3.115477349	87.5374
3.113606148	87.4802
3.111737193	87.4119
3.10987048	87.3518
3.108006006	87.3186
3.106143766	87.1951
3.104283756	87.1389
3.102425973	87.135
3.100570412	87.1189
3.098717069	87.0144
3.096865941	87.0056
3.095017023	86.9475
3.093170311	86.8787
3.091325802	86.7849
3.089483491	86.762
3.087643375	86.6795
3.085805449	86.6917
3.08396971	86.6599
3.082136155	86.6258
3.080304778	86.5525
3.078476524	86.5642
3.076649492	86.5315
3.074824627	86.4822
3.073001926	86.4051
3.071181385	86.3948
3.069363	86.3616
3.067546766	86.2947
3.065732681	86.2776
3.06392074	86.1819
3.06211094	86.0921
3.060303276	86.0178
3.058497745	85.9905
3.056694344	85.9685
3.054893068	85.9588
3.053093914	85.8806
3.051296877	85.8343
3.049501955	85.7522
3.047709144	85.6658
3.045918439	85.5667
3.044129837	85.471
3.042343335	85.406
3.040558928	85.3689
3.038776613	85.2303
3.036996386	85.1521
3.035219166	85.1096
3.033443104	85.0525
3.031669119	84.9202
3.029897208	84.846
3.028127367	84.7849
3.026359592	84.6839
3.02459388	84.615
3.022830228	84.5037
3.021068631	84.387
3.019309085	84.2874
3.017551589	84.2185
3.015796137	84.1272
3.014042726	84.0647
3.012291354	83.9763
3.010542015	83.908
3.008794707	83.8338
3.007049426	83.7151
3.005306169	83.5921
3.003564931	83.5003
3.00182571	83.4217
3.000088503	83.3787
2.998353304	83.242
2.996620112	83.158
2.994888923	83.117
2.993160628	83.0237
2.991433432	82.9163
2.989708228	82.8518
2.987985013	82.7596
2.986263784	82.6526
2.984544536	82.6189
2.982827267	82.5667
2.981111973	82.4827
2.97939865	82.3689
2.977687296	82.2932
2.975977906	82.1756
2.974270478	82.0877
2.972565009	82.0276
2.970861493	82.0447
2.96915993	81.9549
2.967460314	81.949
2.965763522	81.8709
2.964067792	81.781
2.962373999	81.7088
2.960682141	81.6975
2.958992215	81.5896
2.957304216	81.5706
2.955618142	81.533
2.95393399	81.5291
2.952251756	81.5057
2.950571437	81.4314
2.94889303	81.409
2.947216531	81.3719
2.945541937	81.3758
2.943869245	81.3748
2.942198452	81.2928
2.940529554	81.2732
2.938862549	81.2762
2.937197432	81.2498
2.935534201	81.198
2.933872853	81.2303
2.932213384	81.2625
2.930555792	81.2244
2.928900072	81.2039
2.927246222	81.2224
2.925595095	81.2615
2.923944975	81.2459
2.922296715	81.2224
2.920650312	81.1531
2.919005763	81.1756
2.917363066	81.1814
2.915722216	81.1687
2.91408321	81.2068
2.912446047	81.2791
2.910810722	81.3025
2.909177232	81.2889
2.907545575	81.2732
2.905915747	81.3494
2.904287745	81.4002
2.902661566	81.3865
2.901037208	81.3914
2.899414666	81.449
2.897793938	81.4519
2.896175022	81.4207
2.894557913	81.45
2.892942609	81.4461
2.891329106	81.4539
2.889717403	81.4588
2.888107495	81.4392
2.886500214	81.4392
2.884893888	81.4744
2.883289349	81.4588
2.881686594	81.4734
2.880085619	81.4656
2.878486423	81.49
2.876889001	81.4295
2.875293352	81.3894
2.873699471	81.4187
2.872107357	81.449
2.870517006	81.4529
2.868928415	81.3943
2.867341582	81.3514
2.865756502	81.3553
2.864173175	81.3435
2.862591596	81.3172
2.861011762	81.243
2.859433672	81.2166
2.857857321	81.1873
2.856282708	81.0974
2.854709829	81.0799
2.853138681	80.9764
2.851569261	80.909
2.850001568	80.8113
2.848436408	80.7107
2.846872156	80.5564
2.845309621	80.41
2.8437488	80.2049
2.842189691	80.0076
2.840632291	79.7225
2.839076596	79.4773
2.837522604	79.16
2.835970313	78.7742
2.834419719	78.3348
2.83287082	77.9441
2.831323613	77.4539
2.829778094	76.9021
2.828234263	76.3816
2.826692114	75.8797
2.825151647	75.3279
2.823612858	74.7674
2.822075744	74.2088
2.820540303	73.7147
2.819006531	73.2391
2.817474427	72.6834
2.815943987	72.1795
2.81441521	71.783
2.812888091	71.3943
2.811363418	70.9783
2.809839609	70.6932
2.80831745	70.3904
2.806796939	70.1981
2.805278075	69.9549
2.803760853	69.7225
2.802245271	69.5819
2.800731327	69.5945
2.799219018	69.5584
2.797708341	69.5633
2.796199294	69.7303
2.794691874	69.9549
2.793186078	70.241
2.791681905	70.5369
2.79017935	70.8992
2.788678412	71.3836
2.787179865	71.8924
2.785682151	72.3914
2.784186046	72.8836
2.782691547	73.4256
2.781198652	73.9891
2.779707358	74.5106
2.778217662	75.0252
2.776729562	75.5281
2.775243056	76.0164
2.77375814	76.4617
2.772274812	76.8279
2.77079307	77.1775
2.769312911	77.5008
2.767834333	77.7713
2.766357333	78.0359
2.764881908	78.2156
2.763408056	78.4627
2.761935774	78.7303
2.760465061	78.9549
2.758995913	79.2596
2.757528328	79.6111
2.756062304	79.9392
2.754597837	80.3455
2.753134926	80.5887
2.751674325	80.9148
2.750214517	81.3416
2.748756257	81.7283
2.747299542	82.1482
2.74584437	82.6053
2.74439074	83.076
2.742938647	83.4685
2.741488091	83.8357
2.740039067	84.2556
2.738591575	84.6746
2.737145611	84.9842
2.735701174	85.2752
2.73425826	85.7039
2.732816867	86.0515
2.731376994	86.2986
2.729938636	86.5535
2.728501793	86.822
2.727066462	87.0955
2.72563264	87.4158
2.724200325	87.6697
2.722769514	87.8728
2.721340206	88.0906
2.719912397	88.3718
2.718486086	88.5291
2.717062008	88.6384
2.715638684	88.9295
2.714216851	89.1189
2.712796505	89.3484
2.711377646	89.5466
2.709960269	89.7185
2.708544374	89.907
2.707129958	89.9539
2.705717018	90.0125
2.704305552	90.0974
2.702895558	90.2146
2.701487034	90.2732
2.700079976	90.406
2.698674384	90.4187
2.697270255	90.5623
2.695867585	90.6013
2.694466374	90.6912
2.693066619	90.7205
2.691668318	90.7498
2.690271467	90.7771
2.688876066	90.7752
2.687482111	90.8093
2.686089602	90.8797
2.684698534	90.9695
2.683309626	90.9353
2.681921436	90.949
2.680534681	90.9773
2.679149359	90.99
2.677765469	90.9939
2.676383008	91.0115
2.675001973	91.0007
2.673622363	91.0076
2.672244175	90.9373
2.670867407	91.0349
2.669492057	91.0486
2.668118123	91.0213
2.666745602	91.0056
2.665374493	90.9617
2.664004793	90.9002
2.6626365	90.8474
2.66127032	90.8474
2.659904834	90.8552
2.658540748	90.8435
2.657178061	90.865
2.65581677	90.8533
2.654456873	90.8162
2.653098368	90.8132
2.651741253	90.8552
2.650385525	90.864
2.649031183	90.8709
2.647678224	90.8591
2.646326647	90.8123
2.644976449	90.8211
2.643627628	90.7537
2.642280182	90.7791
2.640934109	90.7634
2.639589407	90.74
2.638246073	90.6922
2.636904106	90.7009
2.635563503	90.6843
2.634224263	90.6843
2.632886383	90.6609
2.631549862	90.6775
2.630214697	90.7195
2.628881577	90.7771
2.627549117	90.7507
2.626218007	90.7078
2.624888245	90.617
2.62355983	90.6414
2.622232758	90.6804
2.620907028	90.7166
2.619582638	90.6521
2.618259585	90.6931
2.616937869	90.7234
2.615617486	90.7185
2.614298435	90.6267
2.612980713	90.5857
2.61166432	90.6345
2.610349252	90.5398
2.609035507	90.5945
2.607723085	90.5623
2.606411982	90.6287
2.605102197	90.6375
2.603793727	90.5935
2.602486572	90.5486
2.601180728	90.4939
2.599876194	90.4802
2.598572968	90.49
2.597271722	90.5134
2.595971105	90.5759
2.59467179	90.6189
2.593373774	90.6052
2.592077057	90.5076
2.590781636	90.49
2.589487509	90.4861
2.588194675	90.4548
2.58690313	90.4968
2.585612874	90.4724
2.584323905	90.5076
2.58303622	90.4734
2.581749817	90.4148
2.580464695	90.364
2.579180852	90.367
2.577898286	90.3259
2.576616995	90.3406
2.575336976	90.3054
2.574058229	90.3552
2.572780751	90.365
2.571504541	90.2576
2.570229596	90.1834
2.568955915	90.2263
2.567683495	90.2039
2.566412994	90.1648
2.565143091	90.1531
2.563874445	90.242
2.562607053	90.2459
2.561340913	90.239
2.560076024	90.2029
2.558812384	90.0798
2.55754999	90.1677
2.556288841	90.1209
2.555028936	90.0828
2.553770272	90.1453
2.552512847	90.1179
2.55125666	90.1052
2.550001709	90.117
2.548747991	90.0593
2.547495506	90.075
2.546244252	89.9187
2.544994225	89.8748
2.543745426	89.8992
2.542497852	90.0076
2.5412515	89.9724
2.54000637	89.9304
2.53876246	89.949
2.537519767	89.9812
2.536278934	89.9529
2.535038671	89.9275
2.53379962	89.9295
2.53256178	89.9568
2.531325149	89.9265
2.530089725	89.8875
2.528855506	89.8093
2.52762249	89.7381
2.526390677	89.7068
2.525160064	89.6101
2.523930648	89.5213
2.52270243	89.5047
2.521475406	89.6023
2.520249575	89.575
2.519024936	89.6062
2.517801486	89.5857
2.516579857	89.6716
2.515358781	89.7156
2.514138889	89.7263
2.512920179	89.6326
2.511702651	89.6892
2.510486301	89.7341
2.50927113	89.6609
2.508057134	89.6531
2.506844312	89.6131
2.505632662	89.6365
2.504422183	89.5632
2.503212874	89.5564
2.502004731	89.5838
2.500797754	89.5506
2.499591942	89.5213
2.498387291	89.6267
2.497183801	89.5359
2.49598147	89.4666
2.494780296	89.4295
2.493580278	89.3728
2.492381413	89.4031
2.491183701	89.4695
2.489987139	89.3875
2.488791726	89.3836
2.48759808	89.3132
2.486404959	89.3015
2.485212983	89.3015
2.484022149	89.2498
2.482832455	89.3474
2.4816439	89.4021
2.480456483	89.3006
2.479270202	89.2468
2.478085055	89.3123
2.47690104	89.3787
2.475718156	89.3201
2.474536402	89.3289
2.473355775	89.2976
2.472176274	89.3015
2.470997898	89.3757
2.469820644	89.3093
2.468644512	89.2849
2.467469499	89.2224
2.466295604	89.2498
2.465122826	89.1804
2.463951163	89.1843
2.462780612	89.2429
2.461611174	89.2507
2.460442845	89.2
2.45927623	89.2117
2.458110116	89.2
2.456945108	89.1599
2.455781204	89.0349
2.454618401	89.032
2.4534567	89.0281
2.452296097	89.0506
2.451136592	89.0584
2.449978183	89.0554
2.448820868	88.9841
2.447664646	88.9783
2.446509516	88.9099
2.445355475	88.9158
2.444202523	88.8572
2.443050657	88.9099
2.441899876	89.0271
2.440750179	89.0037
2.439601564	89.0466
2.43845403	89.0857
2.437307575	89.0115
2.436162197	89.0252
2.435017895	89.074
2.433874668	88.99
2.432732513	88.9373
2.431592022	88.947
2.430452008	88.8572
2.429313063	88.8259
2.428175185	88.8689
2.427038372	88.7634
2.425902624	88.7713
2.424767938	88.8084
2.423634312	88.8318
2.422501747	88.7381
2.421370239	88.7498
2.420239788	88.7146
2.419110392	88.6873
2.417982049	88.6677
2.416854758	88.6365
2.415728518	88.6404
2.414603328	88.6131
2.413479185	88.74
2.412356088	88.7556
2.411234036	88.7517
2.410113027	88.8533
2.40899306	88.7244
2.407874134	88.7302
2.406756246	88.658
2.405639396	88.7381
2.40452416	88.7576
2.40340938	88.5935
2.402295634	88.5974
2.401182919	88.617
2.400071234	88.5564
2.398960578	88.5408
2.39785095	88.4783
2.396742348	88.5017
2.39563477	88.5056
2.394528216	88.4549
2.393422683	88.4158
2.392318171	88.4158
2.391214677	88.4119
2.390112201	88.367
2.389010742	88.3533
2.387910297	88.283
2.386811435	88.2029
2.385713014	88.1502
2.384615605	88.1756
2.383519204	88.2634
2.382423811	88.3631
2.381329425	88.4314
2.380236043	88.3982
2.379143665	88.3377
2.37805229	88.4607
2.376961915	88.5252
2.375872539	88.4763
2.374784162	88.3357
2.373696781	88.4412
2.372610396	88.6052
2.371525004	88.5642
2.370440606	88.5232
2.369357198	88.6658
2.368274781	88.5037
2.367193351	88.492
2.366112909	88.447
2.365033453	88.4236
2.363954982	88.2498
2.362877493	88.2752
2.361800987	88.2517
2.360726018	88.242
2.35965147	88.2322
2.3585779	88.199
2.357505307	88.0974
2.356433688	88.2732
2.355363044	88.3045
2.354293372	88.3787
2.353224671	88.3455
2.35215694	88.4256
2.351090177	88.4295
2.350024382	88.3826
2.348959552	88.2752
2.347895687	88.3162
2.346832785	88.3533
2.345770845	88.2127
2.344709866	88.0955
2.343649846	87.9881
2.342590784	88.072
2.341532678	88.0252
2.340475528	87.9177
2.339419333	87.8318
2.33836409	87.8826
2.337309798	87.9295
2.336256457	87.7849
2.335204611	87.7107
2.334153166	87.9002
2.333102667	87.8533
2.332053114	87.8474
2.331004504	87.8455
2.329956838	87.9236
2.328910112	87.9998
2.327864326	87.99
2.32681948	87.8533
2.325775571	87.7986
2.324732598	87.9607
2.32369056	88.1326
2.322649456	88.2185
2.321609284	88.0213
2.320570043	88.0935
2.319531733	88.1599
2.318494351	88.0877
2.317457897	88.0095
2.316422369	87.8552
2.315387766	87.9021
2.314354087	87.8767
2.31332133	87.822
2.312289495	87.7283
2.31125858	87.6814
2.310229117	87.781
2.309200038	87.7908
2.308171875	87.7361
2.307144627	87.6853
2.306118293	87.8045
2.305092872	87.8201
2.304068363	87.7615
2.303044763	87.8299
2.302022073	87.8826
2.301000291	87.8787
2.299979415	87.9646
2.298959445	87.9295
2.297940379	87.9099
2.296922216	87.9724
2.295904955	87.9998
2.294888595	87.9177
2.29387366	87.8826
2.292859097	87.947
2.291845431	87.8845
2.29083266	87.8142
2.289820785	87.6677
2.288809803	87.5642
2.287799713	87.5701
2.286790515	87.5642
2.285782206	87.4783
2.284774786	87.4685
2.283768254	87.4998
2.282762608	87.5408
2.281757848	87.5877
2.280753972	87.5935
2.279750978	87.5252
2.278748867	87.6326
2.277747636	87.5974
2.276747284	87.7967
2.275747811	87.7517
2.274749215	87.6189
2.273751494	87.658
2.272754649	87.6951
2.271758677	87.6814
2.270763578	87.7205
2.269769866	87.783
2.268776508	87.783
2.267784019	87.7068
2.266792398	87.7029
2.265801644	87.6912
2.264811756	87.6658
2.263822732	87.7888
2.262834571	87.7927
2.261847273	87.7771
2.260860836	87.697
2.259875259	87.7029
2.258890541	87.6795
2.257906681	87.6638
2.256923678	87.5818
2.25594153	87.5467
2.254960236	87.4998
2.253979796	87.574
2.253000208	87.6267
2.252021471	87.5935
2.251043584	87.6502
2.250066546	87.7888
2.249090355	87.6267
2.248115012	87.6717
2.247140514	87.7439
2.246167365	87.7361
2.245194554	87.6658
2.244222586	87.7185
2.243251458	87.6326
2.242281171	87.5662
2.241311723	87.5506
2.240343113	87.4177
2.23937534	87.2732
2.238408402	87.4763
2.237442299	87.5642
2.23647703	87.5017
2.235512593	87.5408
2.234548988	87.6111
2.233586213	87.6424
2.232624267	87.6951
2.231663149	87.6814
2.230702859	87.7224
2.229743394	87.7674
2.228784755	87.8435
2.22782694	87.7263
2.226869947	87.6443
2.225913777	87.5642
2.224958427	87.5779
2.224003896	87.4939
2.223050679	87.5349
2.222097785	87.5701
2.221145707	87.6717
2.220194445	87.6365
2.219243997	87.7576
2.218294362	87.5818
2.21734554	87.4724
2.21639753	87.5818
2.215450329	87.5467
2.214503938	87.4236
2.213558355	87.3748
2.212613579	87.4549
2.211669609	87.5857
2.210726445	87.5427
2.209784084	87.4802
2.208842527	87.4314
2.207901771	87.5037
2.206961817	87.531
2.206022662	87.5408
2.205084307	87.6033
2.204146749	87.5486
2.203209989	87.4783
2.202274024	87.4256
2.201338854	87.322
2.200404963	87.3533
2.199471379	87.4158
2.198538587	87.3767
2.197606587	87.4099
2.196675376	87.4392
2.195744954	87.5271
2.194815319	87.4412
2.193886472	87.4998
2.192958411	87.6248
2.192031134	87.6912
2.191104641	87.5408
2.190178931	87.5701
2.189254003	87.7205
2.188329856	87.6873
2.187406488	87.5955
2.1864839	87.6404
2.185562567	87.449
2.184641533	87.5193
2.183721275	87.5642
2.182801792	87.5584
2.181883083	87.3513
2.180965147	87.3689
2.180047983	87.4138
2.17913159	87.406
2.178215967	87.4158
2.177301113	87.406
2.176387028	87.4373
2.175473709	87.5877
2.174561157	87.7517
2.17364937	87.7029
2.172738348	87.6345
2.171828089	87.6013
2.170918592	87.4939
2.170009856	87.6013
2.169101881	87.6658
2.168194666	87.656
2.167288209	87.656
2.166382509	87.8123
2.165477567	87.7654
2.16457338	87.658
2.163670416	87.5877
2.162767737	87.617
2.161865811	87.6404
2.160964637	87.5408
2.160064214	87.7498
2.159164542	87.8611
2.158265618	87.7967
2.157367442	87.8064
2.156470014	87.6482
2.155573332	87.617
2.154677395	87.6736
2.153782203	87.7439
2.152887754	87.5252
2.151994048	87.4842
2.151101084	87.5017
2.150208861	87.5193
2.149317377	87.5486
2.148426632	87.5799
2.147536625	87.4802
2.146647355	87.5154
2.145758822	87.5857
2.144871024	87.5779
2.14398396	87.4412
2.143097629	87.4763
2.14221249	87.4373
2.141327623	87.4705
2.140443487	87.3006
2.139560081	87.3299
2.138677403	87.3552
2.137795454	87.3513
2.136914232	87.3279
2.136033736	87.447
2.135153965	87.447
2.134274919	87.6111
2.133396596	87.6365
2.132518995	87.7029
2.131642117	87.658
2.130765959	87.7049
2.129890521	87.656
2.129015803	87.6345
2.128141802	87.7127
2.127268519	87.6267
2.126395952	87.6013
2.125524101	87.7283
2.124652964	87.6404
2.123782542	87.4295
2.122912832	87.4783
2.122043834	87.5564
2.121175997	87.5974
2.12030842	87.7185
2.119441553	87.697
2.118575394	87.6424
2.117709942	87.6814
2.116845198	87.5076
2.115981159	87.531
2.115117826	87.5935
2.114255197	87.5877
2.113393271	87.5564
2.112532047	87.6111
2.111671525	87.7029
2.110811704	87.6013
2.109952583	87.4842
2.109094161	87.4138
2.108236437	87.408
2.107379855	87.3748
2.106523524	87.3611
2.105667889	87.492
2.104812949	87.4685
2.103958703	87.4705
2.103105151	87.6111
2.10225229	87.6736
2.101400121	87.6521
2.100548642	87.6951
2.099697853	87.7185
2.098847754	87.9216
2.097998342	88.1111
2.097149617	87.9763
2.096301579	87.9939
2.095454226	88.1033
2.094607559	87.9295
2.093761575	87.8377
2.092916274	87.7967
2.092071655	87.7439
2.091227718	87.7342
2.090384461	87.658
2.089541885	87.6345
2.088699987	87.656
2.087858767	87.8592
2.08701866	87.8435
2.086178794	87.7888
2.085339604	88.0349
2.084501088	88.0466
2.083663247	88.0095
2.082826078	88.0017
2.081989583	88.0466
2.081153758	87.9841
2.080318605	88.033
2.079484122	88.3045
