Name: Dry grass
Type:  Vegetation
Class:  Grasses
Subclass:  Dry grass
Particle Size:  Solid
Sample No.:  drygrass.doc
Owner:  JHU
Wavelength Range:  All
Origin:  The entire spectral range was measured at Johns Hopkins University.

Description:  Dry grass.  Spectra were assembled from two segments; the 
bidirectional VNIR and SWIR comprising segment one, and the hemispherical 
MWIR and TIR comprising segment two. The VNIR/SWIR spectrum was 
measured in the laboratory at JHU with a GER IRIS Mark IV, using a large piece 
of sod.  The grass was illuminated from directly above and measured at a 
reflectance angle of 60 degrees to avoid viewing the thatch. 
Measurement:  Bidirectional and directional hemispherical reflectance. 
First Column:  X
Second Column:  Y  
X Units:  Wavelength (micrometers)
Y Units:  Reflectance (percent)
First X Value: 0.38049
Last X Value: 14.011 
Number of X Values: 2559
Additional Information:  None.
 
0.38049	14.249	 
0.38299	14.251		
0.38544	14.546		
0.38791	14.694		
0.39038	14.842		
0.39286	14.99		
0.39531	15.285		
0.39778	15.434		
0.40023	15.729		
0.40271	15.877		
0.40516	16.172		
0.40763	16.32		
0.41006	16.762		
0.41251	17.057		
0.41496	17.352		
0.41743	17.5		
0.41991	17.649
0.42238	17.797
0.42485	17.945
0.4273	18.24
0.42976	18.535
0.43223	18.683
0.4347	18.831
0.43713	19.273
0.43956	19.715
0.44203	19.863
0.44448	20.158
0.44695	20.307
0.44943	20.455
0.4519	20.603
0.45435	20.898
0.45683	21.046
0.45928	21.341
0.46173	21.636
0.46415	22.078
0.46663	22.226
0.46913	22.228
0.47155	22.67
0.47403	22.818
0.47648	23.113
0.47895	23.261
0.4814	23.556
0.48387	23.704
0.48635	23.852
0.48882	24.001
0.49127	24.296
0.49375	24.444
0.4962	24.739
0.49865	25.034
0.50112	25.182
0.50359	25.33
0.50604	25.625
0.50852	25.774
0.51097	26.069
0.51344	26.217
0.51589	26.512
0.51834	26.807
0.52082	26.955
0.52327	27.25
0.5257	27.692
0.52817	27.84
0.5306	28.282
0.53305	28.577
0.5355	28.872
0.53797	29.02
0.5404	29.462
0.54287	29.61
0.54527	30.199
0.54775	30.347
0.5502	30.642
0.55267	30.791
0.55512	31.086
0.5576	31.234
0.56007	31.382
0.56254	31.53
0.56499	31.825
0.56747	31.973
0.56992	32.269
0.57239	32.417
0.57482	32.859
0.57729	33.007
0.57974	33.302
0.58222	33.45
0.58464	33.892
0.58714	33.893
0.58957	34.335
0.59202	34.63
0.59449	34.778
0.59694	35.073
0.59942	35.222
0.60187	35.517
0.60434	35.665
0.60679	35.96
0.60927	36.108
0.61172	36.403
0.61419	36.551
0.61664	36.846
0.61909	37.141
0.62154	37.436
0.62401	37.585
0.62644	38.027
0.62892	38.175
0.63139	38.323
0.63382	38.765
0.63629	38.913
0.63874	39.208
0.64122	39.356
0.64364	39.798
0.64612	39.946
0.64857	40.241
0.65104	40.389
0.65349	40.685
0.65596	40.833
0.65839	41.275
0.66087	41.423
0.66329	41.865
0.66577	42.013
0.66822	42.308
0.67069	42.456
0.67309	43.045
0.67557	43.193
0.67799	43.635
0.68045	43.93
0.6829	44.225
0.68537	44.373
0.6878	44.815
0.69027	44.963
0.6927	45.405
0.69517	45.553
0.6976	45.995
0.70007	46.143
0.7025	46.585
0.70497	46.733
0.70742	47.028
0.7099	47.177
0.71228	47.912
0.71477	47.914
0.7172	48.355
0.71965	48.65
0.7221	48.946
0.72457	49.094
0.72705	49.242
0.72952	49.39
0.73197	49.685
0.73445	49.833
0.7369	50.128
0.73937	50.277
0.74185	50.425
0.74434	50.426
0.74679	50.721
0.74929	50.723
0.75174	51.018
0.75424	51.019
0.75669	51.314
0.75916	51.462
0.76164	51.611
0.76413	51.612
0.76661	51.76
0.76908	51.908
0.77153	52.203
0.77403	52.205
0.77648	52.5
0.77898	52.501
0.78145	52.649
0.78392	52.797
0.7864	52.946
0.78887	53.094
0.79134	53.242
0.79384	53.243
0.79632	53.392
0.79877	53.687
0.80126	53.688
0.80374	53.836
0.80621	53.984
0.80868	54.133
0.81116	54.281
0.81361	54.576
0.81611	54.577
0.81858	54.726
0.82105	54.874
0.82353	55.022
0.826	55.17
0.82847	55.318
0.83097	55.32
0.83342	55.615
0.8359	55.763
0.83837	55.911
0.84084	56.059
0.84332	56.208
0.84579	56.356
0.84826	56.504
0.85074	56.652
0.85324	56.653
0.85571	56.802
0.85816	57.097
0.86066	57.098
0.86311	57.393
0.86558	57.541
0.86805	57.69
0.87053	57.838
0.873	57.986
0.8755	57.987
0.87797	58.136
0.88045	58.284
0.8829	58.579
0.88539	58.58
0.88785	58.875
0.89034	58.877
0.89279	59.172
0.89529	59.173
0.89776	59.321
0.90024	59.469
0.90269	59.764
0.90519	59.766
0.90764	60.061
0.91013	60.062
0.91258	60.357
0.91508	60.359
0.91753	60.654
0.92003	60.655
0.92248	60.95
0.92498	60.951
0.92743	61.246
0.9299	61.395
0.93237	61.543
0.93487	61.544
0.93732	61.839
0.93982	61.841
0.94232	61.842
0.94479	61.99
0.94729	61.992
0.94976	62.14
0.95226	62.141
0.95473	62.289
0.95723	62.291
0.95973	62.292
0.96222	62.294
0.9647	62.442
0.96719	62.443
0.96967	62.591
0.97216	62.593
0.97466	62.594
0.97714	62.742
0.97963	62.744
0.98213	62.745
0.9846	62.893
0.9871	62.895
0.98958	63.043
0.99207	63.044
0.99455	63.192
0.99704	63.194
0.99952	63.342
1.002	63.49
1.0045	63.492
1.007	63.493
1.0095	63.641
1.012	63.643
1.0144	63.791
1.0169	63.792
1.0194	63.794
1.0219	63.795
1.0244	63.943
1.0269	63.944
1.0294	64.093
1.0319	64.094
1.0344	64.095
1.0369	64.097
1.0393	64.245
1.0418	64.246
1.0443	64.395
1.0468	64.396
1.0493	64.544
1.0518	64.545
1.0542	64.694
1.0567	64.695
1.0592	64.843
1.0617	64.845
1.0642	64.993
1.0667	64.994
1.0692	64.996
1.0717	64.997
1.0741	65.145
1.0767	65.146
1.0791	65.148
1.0816	65.296
1.0841	65.298
1.0866	65.299
1.0891	65.3
1.0916	65.302
1.0941	65.45
1.0966	65.451
1.0991	65.452
1.1016	65.454
1.1041	65.602
1.1065	65.604
1.109	65.605
1.1115	65.606
1.114	65.608
1.1165	65.609
1.119	65.61
1.1215	65.612
1.124	65.613
1.1265	65.615
1.129	65.616
1.1315	65.617
1.134	65.619
1.1365	65.62
1.139	65.621
1.1415	65.623
1.144	65.624
1.1465	65.625
1.149	65.627
1.1515	65.628
1.154	65.63
1.1565	65.631
1.159	65.632
1.1615	65.634
1.164	65.488
1.1665	65.49
1.169	65.491
1.1715	65.346
1.174	65.347
1.1765	65.202
1.179	65.203
1.1816	65.057
1.184	65.059
1.1866	65.06
1.189	65.062
1.1915	65.063
1.194	65.211
1.1965	65.359
1.1989	65.654
1.2014	65.803
1.2039	66.098
1.2063	66.393
1.2088	66.541
1.2113	66.689
1.2137	66.837
1.2162	66.839
1.2187	66.84
1.2212	66.841
1.2237	66.843
1.2262	66.844
1.2287	66.846
1.2312	66.847
1.2337	66.848
1.2362	66.85
1.2387	66.851
1.2412	66.852
1.2437	66.707
1.2462	66.708
1.2487	66.71
1.2512	66.711
1.2537	66.713
1.2562	66.714
1.2587	66.715
1.2612	66.863
1.2637	67.012
1.2661	67.16
1.2686	67.161
1.2711	67.603
1.2736	67.604
1.276	67.606
1.2786	67.46
1.2811	67.462
1.2836	67.463
1.2861	67.465
1.2886	67.466
1.2911	67.32
1.2936	67.322
1.2961	67.323
1.2986	67.325
1.3011	67.326
1.3036	67.327
1.3061	67.329
1.3086	67.183
1.3111	67.185
1.3136	67.039
1.3161	67.041
1.3186	67.042
1.3211	66.896
1.3236	66.751
1.3261	66.752
1.3286	66.607
1.3312	66.461
1.3337	66.463
1.3362	66.317
1.3387	66.025
1.3412	66.026
1.3438	65.734
1.3463	65.589
1.3488	65.443
1.3514	65.151
1.3539	65.006
1.3564	64.86
1.359	64.568
1.3615	64.422
1.364	64.13
1.3665	64.131
1.369	63.986
1.3716	63.694
1.3741	63.402
1.3766	63.256
1.3792	62.817
1.3817	62.671
1.3843	62.379
1.3868	61.94
1.3894	61.354
1.3919	61.355
1.3945	60.769
1.3971	60.477
1.3996	60.185
1.4022	59.893
1.4047	59.307
1.4073	59.014
1.4099	58.575
1.4124	58.43
1.4149	57.991
1.4175	57.699
1.42	57.406
1.4226	57.114
1.4251	56.822
1.4276	56.676
1.4302	56.237
1.4327	56.092
1.4353	55.799
1.4378	55.801
1.4403	55.655
1.4428	55.51
1.4453	55.364
1.4478	55.366
1.4503	55.22
1.4529	55.075
1.4554	55.076
1.4579	55.078
1.4604	55.079
1.4628	55.08
1.4654	55.082
1.4678	55.083
1.4703	55.084
1.4728	55.233
1.4753	55.234
1.4778	55.529
1.4803	55.53
1.4827	55.825
1.4852	55.827
1.4876	56.269
1.4901	56.417
1.4926	56.565
1.4951	56.566
1.4976	56.715
1.5	56.863
1.5025	56.864
1.505	56.866
1.5075	56.867
1.51	56.868
1.5125	57.017
1.515	57.018
1.5175	57.019
1.52	57.021
1.5225	57.022
1.525	57.023
1.5275	57.025
1.53	57.026
1.5325	56.881
1.535	56.882
1.5375	56.737
1.54	56.738
1.5425	56.593
1.545	56.594
1.5475	56.742
1.55	56.89
1.5525	56.892
1.555	56.893
1.5575	56.894
1.5599	57.043
1.5624	57.191
1.5649	57.339
1.5674	57.487
1.5698	57.782
1.5722	58.224
1.5747	58.372
1.5772	58.374
1.5797	58.669
1.5821	58.817
1.5846	58.965
1.5871	59.114
1.5896	59.262
1.592	59.41
1.5945	59.411
1.597	59.559
1.5995	59.708
1.602	59.709
1.6045	59.71
1.607	59.712
1.6095	59.713
1.6119	59.861
1.6144	59.863
1.6169	60.011
1.6194	60.012
1.6219	60.014
1.6244	60.015
1.6269	60.016
1.6294	60.018
1.6319	60.019
1.6344	60.02
1.6369	60.022
1.6394	60.023
1.6419	60.025
1.6444	60.026
1.6469	60.027
1.6494	60.029
1.6519	60.03
1.6544	59.885
1.6569	59.886
1.6594	59.741
1.6619	59.595
1.6645	59.45
1.667	59.304
1.6695	59.159
1.672	59.013
1.6745	58.868
1.677	58.722
1.6796	58.577
1.6821	58.578
1.6846	58.433
1.6871	58.434
1.6896	58.289
1.6921	58.143
1.6946	58.145
1.6971	57.999
1.6996	58.001
1.7021	58.002
1.7046	58.003
1.7071	57.858
1.7097	57.859
1.7122	57.714
1.7147	57.715
1.7172	57.717
1.7197	57.718
1.7222	57.719
1.7247	57.721
1.7272	57.722
1.7297	57.577
1.7322	57.578
1.7347	57.579
1.7372	57.581
1.7396	57.729
1.7421	57.73
1.7446	57.732
1.7471	57.733
1.7496	57.734
1.7521	57.883
1.7546	57.884
1.7571	57.885
1.7596	58.034
1.7621	58.035
1.7646	58.036
1.7671	58.038
1.7695	58.186
1.772	58.187
1.7745	58.189
1.777	58.337
1.7795	58.338
1.782	58.34
1.7845	58.488
1.787	58.489
1.7894	58.637
1.7919	58.639
1.7944	58.787
1.7969	58.788
1.7994	58.79
1.8019	58.938
1.8044	58.939
1.8069	58.941
1.8094	58.942
1.8119	58.943
1.8144	58.945
1.8169	58.946
1.8193	59.095
1.8218	59.096
1.8243	59.244
1.8268	59.246
1.8293	59.247
1.8318	59.101
1.8343	59.103
1.8368	59.104
1.8393	58.958
1.8418	58.96
1.8443	58.961
1.8469	58.669
1.8494	58.671
1.8519	58.231
1.8545	58.086
1.857	57.647
1.8595	57.501
1.8623	56.181
1.8648	55.742
1.8675	54.716
1.87	54.57
1.8727	53.544
1.8752	53.105
1.8779	52.078
1.8804	51.933
1.883	51.2
1.8856	51.055
1.8881	50.469
1.8907	50.176
1.8935	48.416
1.896	48.27
1.8987	47.244
1.9012	46.952
1.9036	47.394
1.9061	47.689
1.909	44.9
1.9115	44.755
1.914	44.609
1.9166	44.464
1.919	44.612
1.9215	44.613
1.924	44.762
1.9265	44.91
1.929	45.058
1.9314	45.206
1.9339	45.501
1.9364	45.503
1.9389	45.651
1.9414	45.652
1.9438	45.947
1.9463	45.949
1.9487	46.39
1.9512	46.392
1.9536	46.981
1.9561	47.276
1.9585	47.571
1.961	48.012
1.9634	48.161
1.9659	48.456
1.9684	48.604
1.9708	48.899
1.9733	48.9
1.9758	49.195
1.9782	49.344
1.9807	49.492
1.9832	49.787
1.9856	50.082
1.9881	50.083
1.9906	50.231
1.9931	50.233
1.9956	50.087
1.9981	50.089
2.0006	49.943
2.0031	49.798
2.0057	49.652
2.0082	49.507
2.0107	49.215
2.0132	49.069
2.0158	48.63
2.0183	48.485
2.0209	48.192
2.0234	48.047
2.026	47.608
2.0285	47.315
2.031	47.023
2.0336	46.878
2.0361	46.585
2.0386	46.44
2.0412	46.148
2.0437	46.002
2.0462	45.857
2.0487	45.711
2.0513	45.566
2.0538	45.42
2.0563	45.275
2.0588	45.276
2.0613	45.131
2.0638	45.132
2.0663	44.987
2.0689	44.841
2.0714	44.696
2.0739	44.697
2.0764	44.552
2.0789	44.553
2.0814	44.555
2.0839	44.556
2.0864	44.557
2.0889	44.706
2.0914	44.56
2.0939	44.561
2.0964	44.563
2.0989	44.564
2.1014	44.565
2.1038	44.714
2.1063	44.715
2.1088	44.863
2.1113	45.012
2.1138	44.866
2.1163	45.014
2.1188	45.016
2.1212	45.311
2.1237	45.312
2.1262	45.313
2.1287	45.315
2.1312	45.61
2.1337	45.611
2.1361	45.76
2.1386	45.761
2.1411	45.762
2.1436	45.764
2.1461	45.765
2.1486	45.766
2.1511	45.768
2.1536	45.916
2.1561	45.77
2.1586	45.772
2.1611	45.773
2.1636	45.775
2.1661	45.776
2.1686	45.777
2.1711	45.779
2.1736	45.78
2.1761	45.781
2.1786	45.783
2.1811	45.784
2.1836	45.785
2.1861	45.787
2.1886	45.788
2.1911	45.79
2.1936	45.791
2.1961	45.792
2.1986	45.647
2.2011	45.648
2.2036	45.503
2.2061	45.504
2.2086	45.506
2.2111	45.36
2.2136	45.361
2.2161	45.216
2.2186	45.218
2.2212	45.072
2.2237	44.927
2.2262	44.928
2.2287	44.782
2.2312	44.637
2.2337	44.492
2.2363	44.346
2.2388	44.201
2.2413	44.055
2.2438	43.91
2.2464	43.471
2.249	42.885
2.2515	42.592
2.254	42.447
2.2566	42.008
2.2592	41.715
2.2617	41.277
2.2642	41.131
2.2668	40.986
2.2693	40.84
2.2718	40.695
2.2743	40.696
2.2768	40.697
2.2793	40.699
2.2818	40.553
2.2843	40.555
2.2868	40.556
2.2893	40.411
2.2918	40.412
2.2943	40.413
2.2968	40.415
2.2993	40.416
2.3018	40.418
2.3043	40.272
2.3068	40.273
2.3093	40.275
2.3118	40.276
2.3143	40.277
2.3168	40.279
2.3193	40.28
2.3218	40.282
2.3243	40.283
2.3268	40.284
2.3293	40.286
2.3318	40.287
2.3343	40.288
2.3368	40.437
2.3393	40.438
2.3418	40.439
2.3443	40.441
2.3468	40.442
2.3493	40.444
2.3518	40.445
2.3543	40.446
2.3568	40.448
2.3593	40.449
2.3617	40.45
2.3643	40.305
2.3667	40.453
2.3692	40.455
2.3717	40.456
2.3742	40.457
2.3767	40.459
2.3792	40.46
2.3817	40.461
2.3842	40.463
2.3867	40.464
2.3892	40.319
2.3917	40.32
2.3942	40.322
2.3968	40.176
2.3993	40.031
2.4018	40.032
2.4043	39.887
2.4068	39.741
2.4093	39.596
2.4118	39.597
2.4144	39.305
2.4169	39.306
2.4194	39.161
2.4219	38.868
2.4245	38.429
2.4271	38.137
2.4296	37.991
2.4321	37.846
2.4346	37.554
2.4372	37.408
2.4398	36.676
2.4423	36.236
2.4449	35.944
2.4474	35.799
2.4499	35.653
2.4524	35.508
2.455	35.215
2.4575	35.217
2.4601	34.778
2.4626	34.485
2.4651	34.34
2.4676	34.341
2.4702	34.049
2.4727	33.904
2.4752	33.758
2.4777	33.466
2.4803	33.32
2.4828	33.028
2.4853	32.883
2.4878	32.737
2.4904	32.592
2.4912	32.73
2.4924	32.67
2.4936	32.466
2.4948	32.453
2.496	32.486
2.4972	32.503
2.4984	32.663
2.4996	32.689
2.5008	32.682
2.502	32.711
2.5032	32.688
2.5044	32.788
2.5056	32.894
2.5068	32.91
2.5081	32.863
2.5093	32.891
2.5105	32.972
2.5117	33.027
2.5129	33.077
2.5141	33.112
2.5154	33.089
2.5166	33.103
2.5178	33.294
2.519	33.514
2.5202	33.475
2.5215	33.471
2.5227	33.514
2.5239	33.527
2.5252	33.661
2.5264	33.667
2.5276	33.652
2.5289	33.774
2.5301	33.898
2.5313	33.996
2.5326	34.034
2.5338	34.049
2.535	33.995
2.5363	34.092
2.5375	34.266
2.5388	34.308
2.54	34.349
2.5413	34.513
2.5425	34.598
2.5437	34.649
2.545	34.756
2.5462	34.653
2.5475	34.719
2.5487	34.937
2.55	35.018
2.5513	35.125
2.5525	35.09
2.5538	35.145
2.555	35.292
2.5563	35.362
2.5575	35.408
2.5588	35.422
2.5601	35.482
2.5613	35.749
2.5626	35.878
2.5639	35.764
2.5651	35.833
2.5664	36.007
2.5677	36.126
2.569	36.212
2.5702	36.204
2.5715	36.262
2.5728	36.414
2.5741	36.503
2.5753	36.545
2.5766	36.628
2.5779	36.655
2.5792	36.706
2.5805	36.816
2.5817	36.88
2.583	36.959
2.5843	37.125
2.5856	37.159
2.5869	37.093
2.5882	37.31
2.5895	37.508
2.5908	37.575
2.5921	37.514
2.5934	37.248
2.5947	37.145
2.596	37.425
2.5973	37.716
2.5986	37.854
2.5999	37.883
2.6012	37.869
2.6025	37.948
2.6038	38.018
2.6051	37.933
2.6064	38
2.6077	38.08
2.609	38.072
2.6103	38.094
2.6117	38.072
2.613	38.091
2.6143	38.146
2.6156	38.031
2.6169	38.014
2.6183	38.043
2.6196	37.948
2.6209	38.087
2.6222	38.295
2.6236	38.248
2.6249	38.077
2.6262	38.005
2.6275	38.102
2.6289	38.022
2.6302	38.005
2.6315	38.094
2.6329	37.981
2.6342	37.926
2.6356	37.917
2.6369	37.847
2.6382	37.82
2.6396	37.887
2.6409	37.875
2.6423	37.781
2.6436	37.69
2.645	37.65
2.6463	37.574
2.6477	37.585
2.649	37.602
2.6504	37.444
2.6517	37.307
2.6531	37.219
2.6545	37.066
2.6558	37.056
2.6572	37.133
2.6585	36.973
2.6599	36.79
2.6613	36.731
2.6626	36.673
2.664	36.46
2.6654	36.225
2.6667	36.117
2.6681	36.056
2.6695	35.872
2.6709	35.759
2.6722	35.745
2.6736	35.538
2.675	35.214
2.6764	34.968
2.6778	34.864
2.6791	34.693
2.6805	34.573
2.6819	34.403
2.6833	34.149
2.6847	33.822
2.6861	33.511
2.6875	33.153
2.6889	32.733
2.6903	32.33
2.6917	31.889
2.6931	31.364
2.6945	30.879
2.6959	30.388
2.6973	29.877
2.6987	29.272
2.7001	28.699
2.7015	28.295
2.7029	27.888
2.7043	27.37
2.7057	26.934
2.7071	26.588
2.7085	26.229
2.71	25.831
2.7114	25.477
2.7128	25.106
2.7142	24.718
2.7156	24.258
2.7171	23.663
2.7185	23.004
2.7199	22.331
2.7213	21.794
2.7228	21.288
2.7242	20.665
2.7256	20.08
2.7271	19.567
2.7285	19.104
2.7299	18.562
2.7314	18.054
2.7328	17.619
2.7343	17.07
2.7357	16.459
2.7371	15.994
2.7386	15.59
2.74	15.131
2.7415	14.755
2.7429	14.46
2.7444	14.084
2.7458	13.692
2.7473	13.322
2.7488	12.993
2.7502	12.661
2.7517	12.29
2.7531	11.943
2.7546	11.528
2.7561	11.247
2.7575	11.092
2.759	10.796
2.7605	10.458
2.7619	10.218
2.7634	10.004
2.7649	9.7444
2.7664	9.4911
2.7678	9.2257
2.7693	9.0707
2.7708	8.9262
2.7723	8.6917
2.7738	8.4364
2.7752	8.1883
2.7767	7.9529
2.7782	7.7127
2.7797	7.5452
2.7812	7.4294
2.7827	7.2689
2.7842	7.0504
2.7857	6.9025
2.7872	6.8293
2.7887	6.6784
2.7902	6.5078
2.7917	6.2523
2.7932	6.0513
2.7947	5.8704
2.7962	5.7357
2.7977	5.7635
2.7992	5.6639
2.8007	5.4909
2.8022	5.3874
2.8038	5.2053
2.8053	5.0924
2.8068	5.0179
2.8083	4.8387
2.8098	4.7478
2.8114	4.6763
2.8129	4.633
2.8144	4.5891
2.8159	4.4157
2.8175	4.2868
2.819	4.3095
2.8205	4.2789
2.8221	4.1461
2.8236	4.0868
2.8252	3.9824
2.8267	3.8676
2.8282	3.8559
2.8298	3.8599
2.8313	3.7949
2.8329	3.7364
2.8344	3.7171
2.836	3.6214
2.8375	3.4826
2.8391	3.4328
2.8406	3.4197
2.8422	3.3594
2.8437	3.341
2.8453	3.3377
2.8469	3.3231
2.8484	3.258
2.85	3.1874
2.8516	3.1342
2.8531	3.0455
2.8547	3.0605
2.8563	3.1151
2.8579	3.0876
2.8594	3.0436
2.861	2.9651
2.8626	2.901
2.8642	2.8462
2.8658	2.862
2.8673	2.9524
2.8689	2.9038
2.8705	2.7833
2.8721	2.7823
2.8737	2.8117
2.8753	2.7757
2.8769	2.7692
2.8785	2.7156
2.8801	2.6246
2.8817	2.5986
2.8833	2.6251
2.8849	2.6426
2.8865	2.5498
2.8881	2.5038
2.8897	2.5581
2.8913	2.5897
2.8929	2.6098
2.8946	2.5768
2.8962	2.4945
2.8978	2.5572
2.8994	2.5564
2.901	2.4761
2.9027	2.4464
2.9043	2.4782
2.9059	2.4926
2.9075	2.4892
2.9092	2.4887
2.9108	2.4665
2.9124	2.456
2.9141	2.4225
2.9157	2.4225
2.9174	2.4605
2.919	2.5112
2.9207	2.462
2.9223	2.4253
2.9239	2.4387
2.9256	2.438
2.9272	2.4093
2.9289	2.4301
2.9306	2.4108
2.9322	2.4377
2.9339	2.5108
2.9355	2.5058
2.9372	2.4759
2.9389	2.5134
2.9405	2.4943
2.9422	2.4639
2.9439	2.462
2.9455	2.4452
2.9472	2.3992
2.9489	2.4409
2.9506	2.5911
2.9523	2.6168
2.9539	2.5641
2.9556	2.517
2.9573	2.4626
2.959	2.5507
2.9607	2.5792
2.9624	2.5651
2.9641	2.5662
2.9658	2.5546
2.9675	2.5624
2.9692	2.5524
2.9709	2.5481
2.9726	2.5641
2.9743	2.5735
2.976	2.5833
2.9777	2.5993
2.9794	2.6407
2.9811	2.6826
2.9828	2.6625
2.9845	2.613
2.9863	2.6225
2.988	2.6876
2.9897	2.7156
2.9914	2.6809
2.9932	2.6605
2.9949	2.6495
2.9966	2.7115
2.9984	2.741
3.0001	2.7103
3.0018	2.7362
3.0036	2.8055
3.0053	2.858
3.007	2.8656
3.0088	2.858
3.0105	2.8656
3.0123	2.8532
3.014	2.8885
3.0158	2.9141
3.0176	2.9433
3.0193	2.9881
3.0211	2.9428
3.0228	2.929
3.0246	2.9467
3.0264	2.9759
3.0281	3.0692
3.0299	3.1132
3.0317	3.0955
3.0334	3.1022
3.0352	3.1141
3.037	3.1412
3.0388	3.2218
3.0406	3.2235
3.0423	3.1955
3.0441	3.2041
3.0459	3.197
3.0477	3.2233
3.0495	3.2592
3.0513	3.2859
3.0531	3.2862
3.0549	3.3377
3.0567	3.4582
3.0585	3.5135
3.0603	3.5377
3.0621	3.5401
3.0639	3.5805
3.0657	3.6083
3.0675	3.6083
3.0694	3.6516
3.0712	3.68
3.073	3.7305
3.0748	3.7824
3.0766	3.8559
3.0785	3.9137
3.0803	3.9454
3.0821	3.9394
3.084	3.9712
3.0858	4.0707
3.0876	4.1152
3.0895	4.1418
3.0913	4.1346
3.0932	4.1557
3.095	4.166
3.0969	4.2023
3.0987	4.2487
3.1006	4.3179
3.1024	4.4093
3.1043	4.4303
3.1061	4.437
3.108	4.5215
3.1099	4.5717
3.1117	4.5866
3.1136	4.6225
3.1155	4.6731
3.1174	4.7156
3.1192	4.7033
3.1211	4.693
3.123	4.7468
3.1249	4.8333
3.1268	4.9521
3.1286	4.984
3.1305	4.9998
3.1324	5.0282
3.1343	5.0653
3.1362	5.1091
3.1381	5.1756
3.14	5.2373
3.1419	5.2801
3.1438	5.2964
3.1457	5.3525
3.1476	5.4352
3.1495	5.4986
3.1515	5.5034
3.1534	5.5005
3.1553	5.6022
3.1572	5.6754
3.1591	5.6972
3.1611	5.7769
3.163	5.8649
3.1649	5.8712
3.1669	5.89
3.1688	6.0161
3.1707	6.0973
3.1727	6.1283
3.1746	6.1652
3.1766	6.1814
3.1785	6.2336
3.1805	6.2601
3.1824	6.2822
3.1844	6.374
3.1863	6.4241
3.1883	6.4547
3.1902	6.4729
3.1922	6.5478
3.1942	6.6703
3.1961	6.7334
3.1981	6.7693
3.2001	6.8087
3.2021	6.8069
3.204	6.8396
3.206	6.9088
3.208	6.9837
3.21	7.0081
3.212	7.0686
3.214	7.1284
3.216	7.1868
3.218	7.2155
3.22	7.2509
3.222	7.3424
3.224	7.3945
3.226	7.4074
3.228	7.4735
3.23	7.5093
3.232	7.5648
3.234	7.6103
3.2361	7.6606
3.2381	7.6898
3.2401	7.7237
3.2421	7.76
3.2442	7.7979
3.2462	7.8213
3.2482	7.8706
3.2503	7.9467
3.2523	7.9859
3.2543	8.008
3.2564	8.0711
3.2584	8.0835
3.2605	8.1496
3.2625	8.2352
3.2646	8.3018
3.2666	8.3476
3.2687	8.4414
3.2708	8.4937
3.2728	8.4807
3.2749	8.4831
3.277	8.5568
3.279	8.62
3.2811	8.6411
3.2832	8.695
3.2853	8.7549
3.2874	8.7884
3.2894	8.8597
3.2915	8.9023
3.2936	8.8867
3.2957	8.9138
3.2978	8.9726
3.2999	8.9898
3.302	9.0358
3.3041	9.0826
3.3062	9.0803
3.3083	9.0574
3.3104	9.0793
3.3126	9.1229
3.3147	9.1248
3.3168	9.1032
3.3189	9.121
3.321	9.1138
3.3232	9.0927
3.3253	9.0927
3.3274	9.109
3.3296	9.0291
3.3317	8.9166
3.3339	8.9113
3.336	8.9004
3.3382	8.8381
3.3403	8.742
3.3425	8.6386
3.3446	8.5104
3.3468	8.3802
3.3489	8.262
3.3511	8.0993
3.3533	7.9529
3.3554	7.8744
3.3576	7.7429
3.3598	7.5673
3.362	7.4174
3.3641	7.2876
3.3663	7.1571
3.3685	7.0313
3.3707	6.9203
3.3729	6.7963
3.3751	6.6958
3.3773	6.5992
3.3795	6.4882
3.3817	6.3614
3.3839	6.2652
3.3861	6.213
3.3883	6.1269
3.3906	6.0226
3.3928	5.9032
3.395	5.813
3.3972	5.7474
3.3994	5.646
3.4017	5.546
3.4039	5.5087
3.4061	5.4757
3.4084	5.4244
3.4106	5.3857
3.4129	5.3239
3.4151	5.2713
3.4174	5.1966
3.4196	5.1292
3.4219	5.1306
3.4241	5.1469
3.4264	5.1412
3.4287	5.1857
3.4309	5.267
3.4332	5.3751
3.4355	5.4962
3.4378	5.5527
3.44	5.5742
3.4423	5.6249
3.4446	5.6604
3.4469	5.6843
3.4492	5.7211
3.4515	5.7436
3.4538	5.7838
3.4561	5.8326
3.4584	5.8785
3.4607	5.9396
3.463	6.0355
3.4653	6.1225
3.4677	6.1637
3.47	6.1891
3.4723	6.248
3.4746	6.3164
3.477	6.3317
3.4793	6.3585
3.4816	6.4025
3.484	6.4566
3.4863	6.5188
3.4887	6.5916
3.491	6.6798
3.4934	6.7116
3.4957	6.7059
3.4981	6.7523
3.5004	6.7509
3.5028	6.704
3.5052	6.6296
3.5075	6.6585
3.5099	6.8781
3.5123	7.2495
3.5147	7.7017
3.5171	8.1682
3.5195	8.5089
3.5218	8.775
3.5242	9.0104
3.5266	9.2248
3.529	9.4129
3.5314	9.5746
3.5338	9.7177
3.5363	9.8593
3.5387	9.9899
3.5411	10.126
3.5435	10.288
3.5459	10.444
3.5484	10.599
3.5508	10.709
3.5532	10.764
3.5557	10.832
3.5581	11.008
3.5605	11.164
3.563	11.213
3.5654	11.314
3.5679	11.403
3.5704	11.483
3.5728	11.611
3.5753	11.693
3.5777	11.753
3.5802	11.83
3.5827	11.883
3.5852	11.93
3.5876	11.979
3.5901	12.027
3.5926	12.109
3.5951	12.193
3.5976	12.252
3.6001	12.333
3.6026	12.396
3.6051	12.427
3.6076	12.457
3.6101	12.502
3.6127	12.567
3.6152	12.612
3.6177	12.649
3.6202	12.703
3.6227	12.758
3.6253	12.82
3.6278	12.862
3.6304	12.905
3.6329	12.918
3.6355	12.965
3.638	13.008
3.6406	13.064
3.6431	13.083
3.6457	13.079
3.6482	13.099
3.6508	13.172
3.6534	13.244
3.656	13.251
3.6585	13.258
3.6611	13.297
3.6637	13.372
3.6663	13.425
3.6689	13.488
3.6715	13.508
3.6741	13.557
3.6767	13.635
3.6793	13.674
3.6819	13.759
3.6845	13.88
3.6872	13.936
3.6898	13.97
3.6924	14.038
3.695	14.104
3.6977	14.189
3.7003	14.267
3.703	14.307
3.7056	14.382
3.7083	14.476
3.7109	14.529
3.7136	14.582
3.7162	14.672
3.7189	14.76
3.7216	14.811
3.7242	14.882
3.7269	14.928
3.7296	14.964
3.7323	15.03
3.735	15.096
3.7377	15.18
3.7404	15.247
3.7431	15.295
3.7458	15.351
3.7485	15.414
3.7512	15.485
3.7539	15.57
3.7566	15.634
3.7594	15.667
3.7621	15.713
3.7648	15.781
3.7676	15.879
3.7703	15.941
3.773	16.009
3.7758	16.064
3.7785	16.14
3.7813	16.191
3.7841	16.254
3.7868	16.346
3.7896	16.423
3.7924	16.486
3.7951	16.55
3.7979	16.592
3.8007	16.677
3.8035	16.789
3.8063	16.885
3.8091	16.99
3.8119	17.039
3.8147	17.06
3.8175	17.127
3.8203	17.222
3.8231	17.301
3.8259	17.354
3.8288	17.408
3.8316	17.503
3.8344	17.587
3.8373	17.614
3.8401	17.701
3.843	17.812
3.8458	17.876
3.8487	17.89
3.8515	17.935
3.8544	17.994
3.8573	18.109
3.8601	18.192
3.863	18.198
3.8659	18.215
3.8688	18.259
3.8717	18.344
3.8746	18.409
3.8775	18.465
3.8804	18.507
3.8833	18.51
3.8862	18.527
3.8891	18.556
3.892	18.613
3.8949	18.642
3.8979	18.685
3.9008	18.731
3.9037	18.74
3.9067	18.781
3.9096	18.838
3.9126	18.848
3.9155	18.855
3.9185	18.888
3.9214	18.951
3.9244	18.974
3.9274	18.987
3.9304	19.014
3.9333	19.079
3.9363	19.137
3.9393	19.168
3.9423	19.167
3.9453	19.236
3.9483	19.307
3.9513	19.327
3.9544	19.351
3.9574	19.399
3.9604	19.437
3.9634	19.477
3.9665	19.51
3.9695	19.547
3.9725	19.596
3.9756	19.661
3.9786	19.714
3.9817	19.739
3.9847	19.774
3.9878	19.848
3.9909	19.911
3.994	19.969
3.997	20.057
4.0001	20.143
4.0032	20.192
4.0063	20.257
4.0094	20.317
4.0125	20.386
4.0156	20.472
4.0187	20.536
4.0218	20.587
4.025	20.663
4.0281	20.751
4.0312	20.811
4.0344	20.839
4.0375	20.906
4.0406	20.969
4.0438	21.067
4.047	21.146
4.0501	21.22
4.0533	21.297
4.0565	21.325
4.0596	21.358
4.0628	21.47
4.066	21.542
4.0692	21.584
4.0724	21.654
4.0756	21.729
4.0788	21.793
4.082	21.875
4.0852	21.945
4.0884	22.012
4.0917	22.1
4.0949	22.152
4.0981	22.218
4.1014	22.297
4.1046	22.381
4.1079	22.453
4.1111	22.528
4.1144	22.595
4.1177	22.648
4.1209	22.731
4.1242	22.799
4.1275	22.86
4.1308	22.967
4.1341	23.076
4.1374	23.109
4.1407	23.186
4.144	23.274
4.1473	23.312
4.1506	23.356
4.154	23.442
4.1573	23.515
4.1606	23.57
4.164	23.668
4.1673	23.727
4.1707	23.766
4.174	23.843
4.1774	23.924
4.1808	23.997
4.1841	24.009
4.1875	24.056
4.1909	24.115
4.1943	24.157
4.1977	24.232
4.2011	24.295
4.2045	24.328
4.2079	24.375
4.2113	24.413
4.2148	24.452
4.2182	24.443
4.2216	24.451
4.2251	24.521
4.2285	24.58
4.232	24.609
4.2354	24.668
4.2389	24.708
4.2424	24.73
4.2458	24.752
4.2493	24.81
4.2528	24.852
4.2563	24.907
4.2598	24.952
4.2633	24.989
4.2668	25.02
4.2703	25.043
4.2738	25.07
4.2774	25.084
4.2809	25.097
4.2844	25.154
4.288	25.18
4.2915	25.223
4.2951	25.251
4.2986	25.248
4.3022	25.239
4.3058	25.279
4.3094	25.325
4.3129	25.313
4.3165	25.285
4.3201	25.307
4.3237	25.346
4.3273	25.37
4.331	25.345
4.3346	25.338
4.3382	25.342
4.3418	25.326
4.3455	25.301
4.3491	25.324
4.3528	25.329
4.3564	25.324
4.3601	25.306
4.3638	25.265
4.3674	25.279
4.3711	25.317
4.3748	25.315
4.3785	25.298
4.3822	25.291
4.3859	25.288
4.3896	25.252
4.3934	25.234
4.3971	25.234
4.4008	25.217
4.4045	25.175
4.4083	25.165
4.412	25.172
4.4158	25.127
4.4196	25.089
4.4233	25.092
4.4271	25.103
4.4309	25.081
4.4347	25.018
4.4385	24.988
4.4423	24.989
4.4461	25.032
4.4499	25.026
4.4537	24.995
4.4576	24.959
4.4614	24.955
4.4652	24.968
4.4691	24.934
4.473	24.878
4.4768	24.859
4.4807	24.876
4.4846	24.878
4.4884	24.86
4.4923	24.859
4.4962	24.875
4.5001	24.895
4.504	24.865
4.508	24.845
4.5119	24.814
4.5158	24.788
4.5197	24.783
4.5237	24.781
4.5276	24.745
4.5316	24.718
4.5356	24.718
4.5395	24.667
4.5435	24.615
4.5475	24.581
4.5515	24.524
4.5555	24.469
4.5595	24.409
4.5635	24.353
4.5675	24.295
4.5716	24.235
4.5756	24.177
4.5796	24.11
4.5837	24.03
4.5877	23.974
4.5918	23.915
4.5959	23.826
4.6	23.746
4.604	23.683
4.6081	23.617
4.6122	23.55
4.6163	23.486
4.6205	23.435
4.6246	23.379
4.6287	23.345
4.6328	23.301
4.637	23.248
4.6411	23.226
4.6453	23.204
4.6495	23.167
4.6536	23.133
4.6578	23.087
4.662	23.073
4.6662	23.054
4.6704	23.022
4.6746	23.019
4.6788	23.008
4.6831	22.993
4.6873	23.007
4.6915	23.006
4.6958	22.999
4.7	23.013
4.7043	23.042
4.7086	23.069
4.7129	23.097
4.7172	23.114
4.7215	23.116
4.7258	23.127
4.7301	23.17
4.7344	23.24
4.7387	23.285
4.7431	23.31
4.7474	23.327
4.7517	23.343
4.7561	23.384
4.7605	23.447
4.7648	23.498
4.7692	23.521
4.7736	23.552
4.778	23.609
4.7824	23.62
4.7868	23.633
4.7913	23.665
4.7957	23.693
4.8001	23.718
4.8046	23.73
4.809	23.736
4.8135	23.725
4.818	23.753
4.8225	23.774
4.827	23.761
4.8315	23.76
4.836	23.804
4.8405	23.808
4.845	23.806
4.8495	23.802
4.8541	23.797
4.8586	23.821
4.8632	23.844
4.8678	23.84
4.8723	23.847
4.8769	23.877
4.8815	23.91
4.8861	23.912
4.8907	23.922
4.8953	23.95
4.9	23.968
4.9046	24.001
4.9092	24.035
4.9139	24.056
4.9186	24.113
4.9232	24.183
4.9279	24.234
4.9326	24.273
4.9373	24.334
4.942	24.394
4.9467	24.471
4.9514	24.545
4.9562	24.621
4.9609	24.7
4.9657	24.777
4.9704	24.836
4.9752	24.888
4.98	24.933
4.9848	24.983
4.9896	25.031
4.9944	25.084
4.9992	25.151
5.004	25.195
5.0088	25.216
5.0137	25.253
5.0185	25.293
5.0234	25.342
5.0283	25.394
5.0332	25.448
5.038	25.477
5.043	25.513
5.0479	25.552
5.0528	25.593
5.0577	25.612
5.0627	25.624
5.0676	25.635
5.0726	25.663
5.0775	25.717
5.0825	25.718
5.0875	25.738
5.0925	25.798
5.0975	25.826
5.1025	25.851
5.1075	25.881
5.1126	25.898
5.1176	25.918
5.1227	25.958
5.1277	25.992
5.1328	26.031
5.1379	26.073
5.143	26.092
5.1481	26.118
5.1532	26.159
5.1584	26.208
5.1635	26.268
5.1686	26.286
5.1738	26.308
5.179	26.323
5.1842	26.358
5.1893	26.389
5.1945	26.394
5.1998	26.401
5.205	26.41
5.2102	26.391
5.2154	26.379
5.2207	26.375
5.226	26.347
5.2312	26.311
5.2365	26.273
5.2418	26.242
5.2471	26.208
5.2524	26.153
5.2578	26.114
5.2631	26.069
5.2684	26.029
5.2738	25.98
5.2792	25.926
5.2846	25.883
5.29	25.822
5.2954	25.803
5.3008	25.79
5.3062	25.742
5.3116	25.697
5.3171	25.648
5.3225	25.594
5.328	25.549
5.3335	25.536
5.339	25.501
5.3445	25.432
5.35	25.365
5.3555	25.359
5.3611	25.364
5.3666	25.319
5.3722	25.276
5.3778	25.274
5.3833	25.259
5.3889	25.208
5.3945	25.148
5.4002	25.121
5.4058	25.077
5.4114	25.015
5.4171	24.897
5.4228	24.808
5.4284	24.787
5.4341	24.712
5.4398	24.606
5.4455	24.507
5.4513	24.406
5.457	24.288
5.4628	24.12
5.4685	23.991
5.4743	23.853
5.4801	23.691
5.4859	23.551
5.4917	23.392
5.4975	23.205
5.5033	23.023
5.5092	22.827
5.5151	22.606
5.5209	22.39
5.5268	22.17
5.5327	21.944
5.5386	21.708
5.5445	21.43
5.5505	21.141
5.5564	20.866
5.5624	20.578
5.5684	20.264
5.5744	19.928
5.5804	19.6
5.5864	19.312
5.5924	18.982
5.5984	18.602
5.6045	18.23
5.6106	17.85
5.6166	17.419
5.6227	16.983
5.6288	16.495
5.6349	15.932
5.6411	15.315
5.6472	14.743
5.6534	14.137
5.6596	13.452
5.6657	12.739
5.6719	12.005
5.6782	11.308
5.6844	10.621
5.6906	9.9114
5.6969	9.2733
5.7031	8.6788
5.7094	8.0941
5.7157	7.5646
5.722	7.1239
5.7283	6.7437
5.7347	6.4308
5.741	6.1714
5.7474	5.9788
5.7538	5.8754
5.7602	5.7749
5.7666	5.7263
5.773	5.7713
5.7794	5.8382
5.7859	5.913
5.7923	5.9869
5.7988	6.0731
5.8053	6.1771
5.8118	6.2915
5.8184	6.3664
5.8249	6.4688
5.8314	6.5963
5.838	6.71
5.8446	6.8155
5.8512	6.9018
5.8578	6.9513
5.8644	6.9705
5.8711	6.9626
5.8777	6.8985
5.8844	6.8439
5.8911	6.7798
5.8978	6.6683
5.9045	6.5891
5.9112	6.4939
5.918	6.3621
5.9247	6.2097
5.9315	6.0551
5.9383	5.9293
5.9451	5.8395
5.952	5.7396
5.9588	5.6314
5.9657	5.4929
5.9725	5.3771
5.9794	5.2856
5.9863	5.195
5.9932	5.11
6.0002	5.0356
6.0071	4.94
6.0141	4.8756
6.0211	4.8381
6.0281	4.7825
6.0351	4.7232
6.0421	4.6761
6.0492	4.6449
6.0563	4.6964
6.0633	4.7141
6.0704	4.6968
6.0776	4.7012
6.0847	4.7172
6.0918	4.7337
6.099	4.7511
6.1062	4.7313
6.1134	4.7466
6.1206	4.7911
6.1278	4.8248
6.1351	4.8665
6.1424	4.9227
6.1496	4.9682
6.157	5.0208
6.1643	5.0696
6.1716	5.11
6.179	5.0985
6.1863	5.1062
6.1937	5.1687
6.2011	5.2024
6.2086	5.224
6.216	5.2751
6.2235	5.3062
6.231	5.3256
6.2385	5.3747
6.246	5.4484
6.2535	5.5201
6.2611	5.5912
6.2686	5.6566
6.2762	5.7512
6.2838	5.8425
6.2914	5.9312
6.2991	6.0458
6.3068	6.1635
6.3144	6.2745
6.3221	6.3654
6.3299	6.447
6.3376	6.543
6.3454	6.6511
6.3531	6.7526
6.3609	6.7911
6.3687	6.819
6.3766	6.8511
6.3844	6.86
6.3923	6.8439
6.4002	6.816
6.4081	6.744
6.416	6.7083
6.424	6.6922
6.432	6.6461
6.4399	6.5982
6.448	6.5624
6.456	6.53
6.464	6.5056
6.4721	6.4927
6.4802	6.4865
6.4883	6.4554
6.4964	6.4638
6.5046	6.5063
6.5128	6.5083
6.5209	6.5042
6.5292	6.5136
6.5374	6.4661
6.5456	6.3743
6.5539	6.297
6.5622	6.1826
6.5705	5.9855
6.5789	5.8192
6.5872	5.7213
6.5956	5.6802
6.604	5.7163
6.6124	5.8357
6.6209	5.9608
6.6294	6.0266
6.6378	6.13
6.6464	6.3013
6.6549	6.4475
6.6634	6.565
6.672	6.649
6.6806	6.7551
6.6892	6.8585
6.6979	6.9141
6.7065	6.9394
6.7152	6.9368
6.7239	6.8827
6.7327	6.7954
6.7414	6.6638
6.7502	6.4716
6.759	6.2286
6.7678	5.9355
6.7767	5.5929
6.7855	5.2675
6.7944	5.011
6.8034	4.8182
6.8123	4.6384
6.8213	4.51
6.8302	4.4318
6.8393	4.4012
6.8483	4.3889
6.8573	4.3605
6.8664	4.3289
6.8755	4.3071
6.8847	4.2853
6.8938	4.2712
6.903	4.2359
6.9122	4.187
6.9214	4.1461
6.9307	4.1245
6.94	4.0695
6.9493	4.0028
6.9586	3.9497
6.9679	3.9429
6.9773	3.9267
6.9867	3.9018
6.9962	3.898
7.0056	3.9446
7.0151	3.9509
7.0246	3.9607
7.0341	4.0068
7.0437	4.0105
7.0533	4.0375
7.0629	4.0863
7.0725	4.1064
7.0822	4.1432
7.0919	4.1662
7.1016	4.1645
7.1113	4.1489
7.1211	4.1142
7.1309	4.0659
7.1407	4.038
7.1506	4.0123
7.1604	3.9944
7.1703	3.9625
7.1803	3.9296
7.1902	3.8453
7.2002	3.7681
7.2102	3.6987
7.2203	3.63
7.2303	3.5611
7.2404	3.5065
7.2506	3.4824
7.2607	3.4652
7.2709	3.4712
7.2811	3.5065
7.2914	3.5381
7.3016	3.595
7.3119	3.6403
7.3222	3.7102
7.3326	3.7502
7.343	3.7814
7.3534	3.8229
7.3639	3.8594
7.3743	3.8946
7.3848	3.9253
7.3954	3.9228
7.4059	3.9124
7.4165	3.8898
7.4272	3.8779
7.4378	3.8727
7.4485	3.8377
7.4592	3.7801
7.47	3.7386
7.4807	3.7291
7.4916	3.7212
7.5024	3.685
7.5133	3.6913
7.5242	3.7195
7.5351	3.718
7.5461	3.6803
7.5571	3.6619
7.5681	3.6362
7.5792	3.646
7.5903	3.6687
7.6014	3.7207
7.6126	3.804
7.6238	3.888
7.635	3.9454
7.6462	3.9972
7.6575	4.0631
7.6689	4.1267
7.6802	4.1492
7.6916	4.1635
7.7031	4.1784
7.7145	4.175
7.726	4.1633
7.7375	4.124
7.7491	4.0633
7.7607	3.9959
7.7723	3.9124
7.784	3.8403
7.7957	3.8178
7.8075	3.8214
7.8192	3.7635
7.831	3.7159
7.8429	3.6666
7.8548	3.6041
7.8667	3.5221
7.8786	3.4673
7.8906	3.4333
7.9027	3.4116
7.9147	3.3568
7.9268	3.3304
7.939	3.34
7.9512	3.3472
7.9634	3.3338
7.9756	3.3156
7.9879	3.3158
8.0002	3.3462
8.0126	3.3515
8.025	3.3601
8.0374	3.3676
8.0499	3.3936
8.0624	3.4431
8.075	3.5015
8.0876	3.5255
8.1002	3.5429
8.1129	3.5647
8.1256	3.6058
8.1384	3.6332
8.1512	3.6963
8.164	3.7554
8.1769	3.7899
8.1898	3.7947
8.2028	3.7846
8.2158	3.793
8.2288	3.8032
8.2419	3.758
8.255	3.7265
8.2682	3.687
8.2814	3.6293
8.2946	3.5955
8.3079	3.5759
8.3213	3.53
8.3347	3.5009
8.3481	3.4979
8.3615	3.5072
8.375	3.4664
8.3886	3.4113
8.4022	3.3553
8.4158	3.2761
8.4295	3.1568
8.4432	3.017
8.457	2.8756
8.4708	2.7405
8.4847	2.6349
8.4986	2.6153
8.5126	2.5969
8.5266	2.5914
8.5406	2.5921
8.5547	2.6301
8.5688	2.7108
8.583	2.7805
8.5973	2.8175
8.6116	2.8912
8.6259	2.9299
8.6403	2.9656
8.6547	3.0096
8.6692	3.0185
8.6837	3.0462
8.6982	3.0546
8.7129	3.0323
8.7275	2.9989
8.7422	2.9543
8.757	2.9228
8.7718	2.8675
8.7867	2.7996
8.8016	2.7415
8.8166	2.6969
8.8316	2.6582
8.8467	2.6826
8.8618	2.707
8.877	2.7362
8.8922	2.7028
8.9075	2.7163
8.9228	2.7954
8.9382	2.8592
8.9536	2.9093
8.9691	3.0074
8.9847	3.0592
9.0003	3.1113
9.0159	3.1855
9.0316	3.2922
9.0474	3.3697
9.0632	3.3819
9.0791	3.363
9.095	3.4199
9.111	3.4685
9.127	3.4951
9.1431	3.5152
9.1593	3.5549
9.1755	3.5917
9.1918	3.598
9.2081	3.5683
9.2245	3.63
9.2409	3.7099
9.2574	3.7406
9.274	3.7444
9.2906	3.7912
9.3073	3.8133
9.324	3.8478
9.3408	3.8984
9.3577	3.9602
9.3746	3.9889
9.3916	4.054
9.4086	4.1174
9.4257	4.177
9.4429	4.2377
9.4601	4.3741
9.4774	4.4804
9.4948	4.5755
9.5122	4.6612
9.5297	4.7614
9.5472	4.8344
9.5649	4.8919
9.5825	4.9536
9.6003	5.0637
9.6181	5.1718
9.636	5.2655
9.6539	5.3414
9.6719	5.4077
9.69	5.4584
9.7082	5.4856
9.7264	5.5149
9.7447	5.5507
9.763	5.5742
9.7814	5.6058
9.7999	5.63
9.8185	5.6764
9.8371	5.6972
9.8558	5.7142
9.8746	5.7303
9.8934	5.7889
9.9123	5.8139
9.9313	5.8274
9.9504	5.8403
9.9695	5.8853
9.9887	5.964
10.008	5.9756
10.027	5.9551
10.047	6.0369
10.066	6.1111
10.086	6.1688
10.106	6.2485
10.125	6.4135
10.145	6.5858
10.165	6.7463
10.185	6.8748
10.205	7.0145
10.225	7.0971
10.245	7.1818
10.266	7.2839
10.286	7.3665
10.306	7.4584
10.327	7.5914
10.348	7.7069
10.368	7.8428
10.389	7.9771
10.41	8.118
10.431	8.2759
10.452	8.4563
10.473	8.6411
10.494	8.8147
10.516	8.9556
10.537	9.1014
10.558	9.2509
10.58	9.3952
10.602	9.4918
10.623	9.5975
10.645	9.6712
10.667	9.7339
10.689	9.7404
10.711	9.7517
10.733	9.7555
10.755	9.771
10.778	9.7555
10.8	9.7368
10.823	9.7047
10.846	9.6466
10.868	9.5698
10.891	9.5088
10.914	9.3588
10.937	9.2083
10.96	9.1035
10.983	8.9769
11.007	8.7903
11.03	8.6037
11.054	8.4092
11.077	8.2613
11.101	8.1716
11.125	8.167
11.149	8.2271
11.173	8.3395
11.197	8.5501
11.221	8.8132
11.245	9.026
11.27	9.2257
11.294	9.4143
11.319	9.5801
11.344	9.6624
11.369	9.7014
11.394	9.7387
11.419	9.8026
11.444	9.812
11.469	9.7937
11.495	9.7748
11.52	9.8208
11.546	9.8234
11.572	9.7932
11.598	9.7459
11.624	9.7179
11.65	9.6639
11.676	9.5937
11.702	9.5205
11.729	9.449
11.755	9.3636
11.782	9.3253
11.809	9.2499
11.836	9.1545
11.863	9.0398
11.89	8.9492
11.918	8.8214
11.945	8.6955
11.973	8.5745
12	8.4822
12.028	8.3964
12.056	8.3211
12.084	8.2046
12.113	8.1237
12.141	8.0568
12.169	8.0101
12.198	7.9682
12.227	7.8907
12.256	7.7909
12.285	7.7285
12.314	7.651
12.343	7.6096
12.373	7.5866
12.402	7.55
12.432	7.4911
12.462	7.4644
12.492	7.4242
12.522	7.367
12.552	7.3193
12.583	7.2825
12.614	7.237
12.644	7.2169
12.675	7.1521
12.706	7.1033
12.737	7.0459
12.769	6.9805
12.8	6.9171
12.832	6.8736
12.864	6.8288
12.896	6.7985
12.928	6.7839
12.96	6.7322
12.993	6.6726
13.026	6.6595
13.058	6.6265
13.091	6.5538
13.124	6.4489
13.158	6.3731
13.191	6.3327
13.225	6.2791
13.259	6.1977
13.293	6.1451
13.327	6.0669
13.361	5.9874
13.396	5.8977
13.43	5.8264
13.465	5.7747
13.5	5.7338
13.536	5.6613
13.571	5.6025
13.607	5.5034
13.643	5.4015
13.679	5.3668
13.715	5.3895
13.751	5.3354
13.788	5.2728
13.824	5.2056
13.861	5.1512
13.899	5.1062
13.936	5.1663
13.973	5.1012
14.011	5.0081
