Name:  ALHA 77005
Type:  Stony Meteorites
Class:  Achondrite
Subclass:  Shergottite
Particle Size:  0-75 micrometers
Sample No.:  ALHA 77005
Owner:  JHU
Wavelength range:  IR
Origin:  Meteorite found in Antarctica in 1977.  Smithsonian sample (USNM 
sample No. ALHA 77005.38).
Description:  None.





Measurement:  Bidirectional reflectance
First Column:  X
Second Column:  Y
X Units:  Wavelength (micrometers)
Y Units:  Reflectance (percent)
First X Value:  25.044
Last X Value:  2.0795
Number of X Values:  2286
Additional information:  None

25.044	1.8789
24.924	1.7913
24.805	1.8686
24.686	1.7251
24.569	1.7969
24.454	1.8662
24.339	1.8528
24.225	1.9238
24.112	1.9224
24.001	1.6899
23.890	1.5283
23.781	1.5188
23.672	1.5005
23.564	1.4868
23.458	1.5100
23.352	1.3804
23.247	1.4053
23.144	1.3686
23.041	1.2187
22.939	1.1270
22.838	1.1318
22.738	1.1206
22.638	1.0757
22.540	1.0198
22.442	0.99320
22.345	0.99660
22.250	0.98850
22.154	1.0078
22.060	1.0864
21.967	1.0193
21.874	1.0264
21.782	1.0659
21.691	1.0864
21.601	1.0623
21.511	1.1338
21.422	1.1926
21.334	1.1941
21.247	1.1587
21.160	1.1062
21.074	1.0847
20.988	1.1584
20.904	1.2324
20.820	1.2839
20.737	1.3298
20.654	1.3435
20.572	1.4143
20.491	1.5044
20.410	1.5232
20.330	1.5444
20.251	1.6208
20.172	1.6470
20.094	1.5730
20.016	1.5696
19.939	1.6340
19.863	1.6255
19.787	1.6218
19.712	1.6528
19.637	1.6738
19.563	1.6667
19.489	1.6501
19.416	1.6719
19.344	1.7371
19.272	1.7483
19.201	1.7346
19.130	1.7163
19.059	1.7317
18.990	1.7351
18.920	1.6584
18.851	1.6262
18.783	1.6406
18.715	1.6682
18.648	1.6919
18.581	1.6577
18.515	1.6248
18.449	1.6326
18.384	1.5749
18.319	1.4565
18.254	1.4348
18.190	1.4658
18.126	1.4512
18.063	1.4158
18.001	1.3733
17.938	1.3201
17.876	1.2676
17.815	1.2620
17.754	1.2344
17.693	1.1838
17.633	1.1853
17.573	1.1606
17.514	1.1436
17.455	1.1345
17.396	1.0862
17.338	1.0481
17.280	1.0349
17.223	1.0288
17.166	1.0220
17.109	1.0195
17.053	1.0300
16.997	1.0056
16.942	0.99320
16.886	1.0164
16.832	1.0408
16.777	1.0498
16.723	1.0496
16.669	1.0220
16.616	1.0264
16.563	1.0498
16.510	1.0662
16.458	1.0669
16.406	1.0520
16.354	1.0642
16.302	1.0935
16.251	1.0920
16.200	1.0652
16.150	1.0461
16.100	1.0388
16.050	1.0530
16.000	1.0217
15.951	0.99050
15.902	0.97460
15.854	0.95870
15.805	0.95560
15.757	0.92800
15.710	0.89550
15.662	0.86620
15.615	0.84230
15.568	0.80620
15.521	0.77490
15.475	0.78120
15.429	0.81350
15.383	0.82960
15.338	0.80000
15.292	0.77660
15.248	0.82350
15.203	0.87600
15.158	0.84450
15.114	0.83250
15.070	0.86520
15.027	0.86870
14.983	0.88920
14.940	0.91450
14.897	0.93070
14.854	0.96560
14.812	0.98140
14.770	0.99020
14.728	1.0078
14.686	1.0522
14.645	1.0815
14.603	1.1006
14.562	1.1401
14.521	1.1921
14.481	1.2390
14.441	1.2790
14.400	1.3113
14.361	1.3350
14.321	1.3818
14.281	1.4099
14.242	1.4204
14.203	1.4490
14.164	1.4724
14.126	1.4866
14.087	1.4988
14.049	1.4871
14.011	1.5085
13.973	1.5359
13.936	1.5361
13.899	1.5239
13.861	1.5022
13.824	1.5181
13.788	1.5498
13.751	1.5574
13.715	1.5373
13.679	1.5344
13.643	1.5591
13.607	1.5749
13.571	1.5681
13.536	1.5986
13.500	1.6709
13.465	1.7195
13.430	1.7415
13.396	1.7624
13.361	1.7849
13.327	1.8484
13.293	1.8862
13.259	1.8874
13.225	1.8938
13.191	1.9287
13.158	1.9753
13.124	1.9858
13.091	1.9783
13.058	1.9885
13.026	1.9949
12.993	2.0054
12.960	2.0190
12.928	2.0098
12.896	1.9985
12.864	1.9946
12.832	1.9622
12.800	1.9412
12.769	1.9443
12.737	1.9407
12.706	1.9048
12.675	1.8782
12.644	1.8772
12.614	1.8520
12.583	1.8284
12.552	1.8191
12.522	1.8115
12.492	1.7849
12.462	1.7563
12.432	1.7424
12.402	1.7122
12.373	1.6799
12.343	1.6667
12.314	1.6462
12.285	1.6006
12.256	1.5583
12.227	1.5110
12.198	1.4600
12.169	1.4397
12.141	1.4297
12.113	1.3987
12.084	1.3638
12.056	1.3477
12.028	1.3220
12.000	1.3074
11.973	1.2917
11.945	1.2478
11.918	1.2148
11.890	1.1863
11.863	1.1924
11.836	1.2314
11.809	1.2637
11.782	1.2820
11.755	1.3064
11.729	1.3213
11.702	1.3386
11.676	1.3638
11.650	1.4060
11.624	1.4468
11.598	1.5056
11.572	1.5557
11.546	1.5759
11.520	1.6177
11.495	1.7026
11.469	1.7788
11.444	1.8186
11.419	1.8364
11.394	1.8638
11.369	1.9028
11.344	1.9167
11.319	1.9394
11.294	1.9668
11.270	1.9690
11.245	1.9712
11.221	1.9619
11.197	1.9673
11.173	1.9709
11.149	1.9558
11.125	1.9517
11.101	1.9573
11.077	1.9866
11.054	2.0054
11.030	2.0032
11.007	2.0032
10.983	2.0203
10.960	2.0320
10.937	2.0510
10.914	2.0698
10.891	2.0872
10.868	2.1213
10.846	2.1387
10.823	2.1370
10.800	2.1433
10.778	2.1584
10.755	2.1704
10.733	2.1665
10.711	2.1475
10.689	2.1389
10.667	2.1326
10.645	2.0957
10.623	2.0454
10.602	2.0102
10.580	1.9648
10.558	1.8799
10.537	1.7988
10.516	1.7405
10.494	1.6882
10.473	1.6472
10.452	1.6350
10.431	1.6248
10.410	1.5989
10.389	1.5889
10.368	1.5984
10.348	1.6023
10.327	1.6099
10.306	1.6287
10.286	1.6348
10.266	1.6304
10.245	1.6230
10.225	1.6045
10.205	1.5786
10.185	1.5603
10.165	1.5349
10.145	1.5012
10.125	1.4775
10.106	1.4685
10.086	1.4665
10.066	1.4582
10.047	1.4485
10.027	1.4536
10.008	1.4504
9.9887	1.4448
9.9695	1.4429
9.9504	1.4438
9.9313	1.4495
9.9123	1.4482
9.8934	1.4456
9.8746	1.4463
9.8558	1.4509
9.8371	1.4507
9.8185	1.4531
9.7999	1.4612
9.7814	1.4731
9.7630	1.4746
9.7447	1.4910
9.7264	1.5154
9.7082	1.5054
9.6900	1.5061
9.6719	1.5339
9.6539	1.5508
9.6360	1.5574
9.6181	1.5774
9.6003	1.5947
9.5825	1.5945
9.5649	1.6038
9.5472	1.6191
9.5297	1.6277
9.5122	1.6265
9.4948	1.6372
9.4774	1.6433
9.4601	1.6499
9.4429	1.6436
9.4257	1.6186
9.4086	1.5862
9.3916	1.5632
9.3746	1.5237
9.3577	1.4951
9.3408	1.4705
9.3240	1.4365
9.3073	1.4048
9.2906	1.3767
9.2740	1.3491
9.2574	1.3281
9.2409	1.3069
9.2245	1.2920
9.2081	1.2739
9.1918	1.2725
9.1755	1.2725
9.1593	1.2705
9.1431	1.2744
9.1270	1.2747
9.1110	1.2749
9.0950	1.2734
9.0791	1.2795
9.0632	1.2988
9.0474	1.2991
9.0316	1.2925
9.0159	1.3037
9.0003	1.3091
8.9847	1.2930
8.9691	1.2883
8.9536	1.2983
8.9382	1.3000
8.9228	1.2947
8.9075	1.2969
8.8922	1.2922
8.8770	1.2712
8.8618	1.2615
8.8467	1.2395
8.8316	1.2070
8.8166	1.1943
8.8016	1.1887
8.7867	1.1816
8.7718	1.1692
8.7570	1.1670
8.7422	1.1602
8.7275	1.1572
8.7129	1.1645
8.6982	1.1580
8.6837	1.1387
8.6692	1.1357
8.6547	1.1338
8.6403	1.1240
8.6259	1.1321
8.6116	1.1470
8.5973	1.1562
8.5830	1.1633
8.5688	1.1746
8.5547	1.1931
8.5406	1.2148
8.5266	1.2334
8.5126	1.2451
8.4986	1.2659
8.4847	1.2917
8.4708	1.3240
8.4570	1.3530
8.4432	1.3774
8.4295	1.4021
8.4158	1.4292
8.4022	1.4573
8.3886	1.4976
8.3750	1.5383
8.3615	1.5723
8.3481	1.6103
8.3347	1.6619
8.3213	1.7039
8.3079	1.7419
8.2946	1.7891
8.2814	1.8337
8.2682	1.8740
8.2550	1.9248
8.2419	1.9844
8.2288	2.0393
8.2158	2.0996
8.2028	2.1643
8.1898	2.2239
8.1769	2.2832
8.1640	2.3540
8.1512	2.4238
8.1384	2.4807
8.1256	2.5442
8.1129	2.6201
8.1002	2.6914
8.0876	2.7563
8.0750	2.8325
8.0624	2.9089
8.0499	2.9717
8.0374	3.0442
8.0250	3.1160
8.0126	3.1799
8.0002	3.2493
7.9879	3.3235
7.9756	3.3821
7.9634	3.4458
7.9512	3.5244
7.9390	3.5828
7.9268	3.6267
7.9147	3.6814
7.9027	3.7451
7.8906	3.7925
7.8786	3.8362
7.8667	3.8923
7.8548	3.9453
7.8429	3.9936
7.8310	4.0434
7.8192	4.0950
7.8075	4.1409
7.7957	4.1919
7.7840	4.2395
7.7723	4.2800
7.7607	4.3201
7.7491	4.3596
7.7375	4.3974
7.7260	4.4282
7.7145	4.4680
7.7031	4.5019
7.6916	4.5261
7.6802	4.5481
7.6689	4.5798
7.6575	4.6035
7.6462	4.6284
7.6350	4.6597
7.6238	4.6894
7.6126	4.7207
7.6014	4.7488
7.5903	4.7771
7.5792	4.8076
7.5681	4.8535
7.5571	4.9016
7.5461	4.9380
7.5351	4.9817
7.5242	5.0246
7.5133	5.0640
7.5024	5.1057
7.4916	5.1496
7.4807	5.1899
7.4700	5.2241
7.4592	5.2720
7.4485	5.3244
7.4378	5.3616
7.4272	5.4016
7.4165	5.4473
7.4059	5.4917
7.3954	5.5281
7.3848	5.5703
7.3743	5.6094
7.3639	5.6379
7.3534	5.6645
7.3430	5.7046
7.3326	5.7287
7.3223	5.7488
7.3119	5.7810
7.3016	5.8027
7.2914	5.8225
7.2811	5.8506
7.2709	5.8789
7.2607	5.9023
7.2506	5.9314
7.2404	5.9660
7.2303	5.9868
7.2203	6.0112
7.2102	6.0449
7.2002	6.0718
7.1902	6.0942
7.1803	6.1123
7.1703	6.1343
7.1604	6.1562
7.1506	6.1733
7.1407	6.1951
7.1309	6.2107
7.1211	6.2292
7.1113	6.2571
7.1016	6.2768
7.0919	6.2973
7.0822	6.3288
7.0725	6.3633
7.0629	6.3911
7.0533	6.4150
7.0437	6.4448
7.0341	6.4831
7.0246	6.5202
7.0151	6.5576
7.0056	6.5867
6.9962	6.6050
6.9867	6.6343
6.9773	6.6594
6.9679	6.6680
6.9586	6.6875
6.9493	6.7246
6.9400	6.7458
6.9307	6.7622
6.9214	6.7729
6.9122	6.7776
6.9030	6.7868
6.8938	6.8135
6.8847	6.8291
6.8755	6.8318
6.8664	6.8388
6.8573	6.8630
6.8483	6.8994
6.8393	6.9214
6.8302	6.9375
6.8213	6.9548
6.8123	6.9729
6.8034	6.9961
6.7944	7.0173
6.7855	7.0366
6.7767	7.0615
6.7678	7.0857
6.7590	7.0981
6.7502	7.1096
6.7414	7.1167
6.7327	7.1179
6.7239	7.1225
6.7152	7.1316
6.7065	7.1294
6.6979	7.1140
6.6892	7.1028
6.6806	7.0918
6.6720	7.0881
6.6634	7.0906
6.6549	7.0901
6.6464	7.0598
6.6378	7.0268
6.6294	7.0361
6.6209	7.0500
6.6124	7.0415
6.6040	7.0425
6.5956	7.0469
6.5872	7.0488
6.5789	7.0398
6.5705	7.0371
6.5622	7.0461
6.5539	7.0508
6.5456	7.0617
6.5374	7.0703
6.5292	7.0666
6.5209	7.0674
6.5128	7.0764
6.5046	7.0654
6.4964	7.0383
6.4883	7.0417
6.4802	7.0576
6.4721	7.0617
6.4640	7.0632
6.4560	7.0586
6.4480	7.0525
6.4399	7.0483
6.4320	7.0378
6.4240	7.0173
6.4160	6.9875
6.4081	6.9880
6.4002	6.9975
6.3923	6.9917
6.3844	6.9870
6.3766	6.9680
6.3687	6.9370
6.3609	6.9245
6.3531	6.9116
6.3454	6.8867
6.3376	6.8764
6.3299	6.8735
6.3221	6.8572
6.3144	6.8447
6.3068	6.8430
6.2991	6.8437
6.2914	6.8305
6.2838	6.8222
6.2762	6.8196
6.2686	6.8052
6.2611	6.7973
6.2535	6.8025
6.2460	6.7942
6.2385	6.7893
6.2310	6.7971
6.2235	6.8015
6.2160	6.7978
6.2086	6.7976
6.2011	6.7998
6.1937	6.7949
6.1863	6.7859
6.1790	6.7937
6.1716	6.8010
6.1643	6.8022
6.1570	6.8061
6.1496	6.8110
6.1424	6.8071
6.1351	6.7978
6.1278	6.7837
6.1206	6.7505
6.1134	6.7095
6.1062	6.6863
6.0990	6.6511
6.0918	6.6052
6.0847	6.5544
6.0776	6.4890
6.0704	6.4289
6.0633	6.3718
6.0563	6.3049
6.0492	6.2336
6.0421	6.2158
6.0351	6.2163
6.0281	6.2038
6.0211	6.1897
6.0141	6.1892
6.0071	6.2099
6.0002	6.2261
5.9932	6.2466
5.9863	6.2800
5.9794	6.3164
5.9725	6.3503
5.9657	6.3786
5.9588	6.4143
5.9520	6.4494
5.9451	6.4724
5.9383	6.4795
5.9315	6.5061
5.9247	6.5498
5.9180	6.5830
5.9112	6.6028
5.9045	6.6130
5.8978	6.6279
5.8911	6.6594
5.8844	6.6772
5.8777	6.6965
5.8711	6.7334
5.8644	6.7580
5.8578	6.7844
5.8512	6.8064
5.8446	6.8242
5.8380	6.8398
5.8314	6.8591
5.8249	6.8672
5.8184	6.8850
5.8118	6.9199
5.8053	6.9409
5.7988	6.9541
5.7923	6.9612
5.7859	6.9665
5.7794	6.9629
5.7730	6.9426
5.7666	6.9270
5.7602	6.9197
5.7538	6.9011
5.7474	6.8667
5.7410	6.8386
5.7347	6.8044
5.7283	6.7649
5.7220	6.7258
5.7157	6.6750
5.7094	6.6343
5.7031	6.6020
5.6969	6.5605
5.6906	6.5151
5.6844	6.4817
5.6782	6.4531
5.6719	6.4328
5.6657	6.4216
5.6596	6.4140
5.6534	6.4209
5.6472	6.4294
5.6411	6.4402
5.6349	6.4746
5.6288	6.5168
5.6227	6.5642
5.6166	6.6057
5.6106	6.6540
5.6045	6.7048
5.5984	6.7671
5.5924	6.8240
5.5864	6.8711
5.5804	6.9123
5.5744	6.9514
5.5684	6.9924
5.5624	7.0368
5.5564	7.0671
5.5505	7.0837
5.5445	7.1042
5.5386	7.1235
5.5327	7.1318
5.5268	7.1399
5.5209	7.1538
5.5151	7.1616
5.5092	7.1672
5.5033	7.1792
5.4975	7.1867
5.4917	7.1863
5.4859	7.1909
5.4801	7.2019
5.4743	7.2114
5.4685	7.2256
5.4628	7.2497
5.4570	7.2734
5.4513	7.2910
5.4455	7.3088
5.4398	7.3357
5.4341	7.3579
5.4284	7.3838
5.4228	7.4070
5.4171	7.4263
5.4114	7.4526
5.4058	7.4785
5.4002	7.5002
5.3945	7.5156
5.3889	7.5305
5.3833	7.5444
5.3778	7.5588
5.3722	7.5747
5.3666	7.5884
5.3611	7.5979
5.3555	7.5986
5.3500	7.6091
5.3445	7.6211
5.3390	7.6199
5.3335	7.6189
5.3280	7.6264
5.3225	7.6269
5.3171	7.6284
5.3116	7.6269
5.3062	7.6208
5.3008	7.6201
5.2954	7.6194
5.2900	7.6094
5.2846	7.6130
5.2792	7.6186
5.2738	7.6203
5.2684	7.6238
5.2631	7.6313
5.2578	7.6384
5.2524	7.6438
5.2471	7.6523
5.2418	7.6670
5.2365	7.6836
5.2312	7.6990
5.2260	7.7153
5.2207	7.7226
5.2154	7.7287
5.2102	7.7395
5.2050	7.7512
5.1998	7.7651
5.1945	7.7822
5.1893	7.7954
5.1842	7.8027
5.1790	7.8244
5.1738	7.8413
5.1686	7.8432
5.1635	7.8620
5.1584	7.8913
5.1532	7.9101
5.1481	7.9270
5.1430	7.9504
5.1379	7.9756
5.1328	7.9912
5.1277	8.0112
5.1227	8.0359
5.1176	8.0556
5.1126	8.0732
5.1075	8.0947
5.1025	8.1142
5.0975	8.1264
5.0925	8.1426
5.0875	8.1606
5.0825	8.1767
5.0775	8.1926
5.0726	8.2099
5.0676	8.2283
5.0627	8.2419
5.0577	8.2583
5.0528	8.2729
5.0479	8.2832
5.0430	8.2961
5.0380	8.3120
5.0332	8.3262
5.0283	8.3384
5.0234	8.3496
5.0185	8.3620
5.0137	8.3801
5.0088	8.3935
5.0040	8.4043
4.9992	8.4182
4.9944	8.4355
4.9896	8.4543
4.9848	8.4812
4.9800	8.5027
4.9752	8.5298
4.9704	8.5642
4.9657	8.5959
4.9609	8.6357
4.9562	8.6804
4.9514	8.7219
4.9467	8.7588
4.9420	8.7993
4.9373	8.8349
4.9326	8.8791
4.9279	8.9294
4.9232	8.9729
4.9186	9.0107
4.9139	9.0510
4.9092	9.0898
4.9046	9.1220
4.9000	9.1667
4.8953	9.2087
4.8907	9.2392
4.8861	9.2654
4.8815	9.2978
4.8769	9.3301
4.8723	9.3545
4.8678	9.3803
4.8632	9.4084
4.8586	9.4304
4.8541	9.4482
4.8495	9.4778
4.8450	9.5024
4.8405	9.5276
4.8360	9.5559
4.8315	9.5766
4.8270	9.5984
4.8225	9.6189
4.8180	9.6345
4.8135	9.6572
4.8090	9.6804
4.8046	9.7004
4.8001	9.7258
4.7957	9.7549
4.7913	9.7766
4.7868	9.7964
4.7824	9.8135
4.7780	9.8335
4.7736	9.8525
4.7692	9.8679
4.7648	9.8928
4.7605	9.9148
4.7561	9.9370
4.7517	9.9587
4.7474	9.9717
4.7431	9.9922
4.7387	10.013
4.7344	10.034
4.7301	10.053
4.7258	10.061
4.7215	10.080
4.7172	10.104
4.7129	10.117
4.7086	10.136
4.7043	10.165
4.7000	10.176
4.6958	10.185
4.6915	10.212
4.6873	10.235
4.6831	10.254
4.6788	10.277
4.6746	10.302
4.6704	10.323
4.6662	10.337
4.6620	10.357
4.6578	10.380
4.6536	10.402
4.6495	10.422
4.6453	10.450
4.6411	10.468
4.6370	10.486
4.6328	10.518
4.6287	10.535
4.6246	10.550
4.6205	10.574
4.6163	10.592
4.6122	10.605
4.6081	10.624
4.6040	10.647
4.6000	10.659
4.5959	10.676
4.5918	10.698
4.5877	10.714
4.5837	10.734
4.5796	10.752
4.5756	10.768
4.5716	10.782
4.5675	10.788
4.5635	10.808
4.5595	10.828
4.5555	10.842
4.5515	10.855
4.5475	10.863
4.5435	10.870
4.5395	10.885
4.5356	10.898
4.5316	10.906
4.5276	10.921
4.5237	10.931
4.5197	10.932
4.5158	10.947
4.5119	10.960
4.5080	10.968
4.5040	10.978
4.5001	10.988
4.4962	10.997
4.4923	11.005
4.4884	11.012
4.4846	11.019
4.4807	11.027
4.4768	11.032
4.4730	11.037
4.4691	11.046
4.4652	11.060
4.4614	11.063
4.4576	11.066
4.4537	11.073
4.4499	11.083
4.4461	11.092
4.4423	11.099
4.4385	11.113
4.4347	11.123
4.4309	11.127
4.4271	11.129
4.4233	11.132
4.4196	11.132
4.4158	11.141
4.4120	11.152
4.4083	11.161
4.4045	11.165
4.4008	11.168
4.3971	11.174
4.3934	11.175
4.3896	11.186
4.3859	11.197
4.3822	11.194
4.3785	11.198
4.3748	11.211
4.3711	11.213
4.3674	11.209
4.3638	11.218
4.3601	11.226
4.3564	11.229
4.3528	11.233
4.3491	11.244
4.3455	11.246
4.3418	11.246
4.3382	11.254
4.3346	11.250
4.3310	11.250
4.3273	11.264
4.3237	11.267
4.3201	11.265
4.3165	11.266
4.3129	11.267
4.3094	11.274
4.3058	11.287
4.3022	11.298
4.2986	11.299
4.2951	11.302
4.2915	11.313
4.2880	11.315
4.2844	11.312
4.2809	11.320
4.2774	11.327
4.2738	11.334
4.2703	11.337
4.2668	11.337
4.2633	11.350
4.2598	11.360
4.2563	11.359
4.2528	11.368
4.2493	11.371
4.2458	11.368
4.2424	11.374
4.2389	11.382
4.2354	11.392
4.2320	11.392
4.2285	11.396
4.2251	11.401
4.2216	11.412
4.2182	11.415
4.2148	11.415
4.2113	11.427
4.2079	11.442
4.2045	11.440
4.2011	11.436
4.1977	11.445
4.1943	11.455
4.1909	11.461
4.1875	11.464
4.1841	11.471
4.1808	11.472
4.1774	11.476
4.1740	11.487
4.1707	11.484
4.1673	11.481
4.1640	11.490
4.1606	11.500
4.1573	11.495
4.1540	11.500
4.1506	11.505
4.1473	11.507
4.1440	11.511
4.1407	11.512
4.1374	11.513
4.1341	11.522
4.1308	11.527
4.1275	11.530
4.1242	11.532
4.1209	11.535
4.1177	11.540
4.1144	11.539
4.1111	11.543
4.1079	11.551
4.1046	11.553
4.1014	11.557
4.0981	11.556
4.0949	11.556
4.0917	11.559
4.0884	11.568
4.0852	11.576
4.0820	11.578
4.0788	11.583
4.0756	11.583
4.0724	11.587
4.0692	11.596
4.0660	11.596
4.0628	11.594
4.0596	11.601
4.0565	11.607
4.0533	11.608
4.0501	11.612
4.0470	11.614
4.0438	11.611
4.0406	11.616
4.0375	11.614
4.0344	11.618
4.0312	11.621
4.0281	11.620
4.0250	11.635
4.0218	11.638
4.0187	11.636
4.0156	11.637
4.0125	11.637
4.0094	11.636
4.0063	11.642
4.0032	11.648
4.0001	11.648
3.9970	11.647
3.9940	11.647
3.9909	11.651
3.9878	11.654
3.9847	11.658
3.9817	11.657
3.9786	11.657
3.9756	11.657
3.9725	11.656
3.9695	11.651
3.9665	11.649
3.9634	11.659
3.9604	11.661
3.9574	11.653
3.9544	11.658
3.9513	11.663
3.9483	11.660
3.9453	11.663
3.9423	11.667
3.9393	11.662
3.9363	11.658
3.9333	11.656
3.9304	11.658
3.9274	11.662
3.9244	11.669
3.9214	11.673
3.9185	11.665
3.9155	11.660
3.9126	11.663
3.9096	11.668
3.9067	11.671
3.9037	11.677
3.9008	11.672
3.8979	11.662
3.8949	11.668
3.8920	11.669
3.8891	11.662
3.8862	11.656
3.8833	11.663
3.8804	11.663
3.8775	11.658
3.8746	11.660
3.8717	11.656
3.8688	11.653
3.8659	11.653
3.8630	11.661
3.8601	11.659
3.8573	11.650
3.8544	11.651
3.8515	11.649
3.8487	11.651
3.8458	11.650
3.8430	11.646
3.8401	11.642
3.8373	11.650
3.8344	11.653
3.8316	11.648
3.8288	11.647
3.8259	11.645
3.8231	11.649
3.8203	11.650
3.8175	11.646
3.8147	11.647
3.8119	11.636
3.8091	11.627
3.8063	11.634
3.8035	11.641
3.8007	11.635
3.7979	11.626
3.7951	11.623
3.7924	11.631
3.7896	11.632
3.7868	11.628
3.7841	11.621
3.7813	11.628
3.7785	11.635
3.7758	11.629
3.7730	11.625
3.7703	11.623
3.7676	11.622
3.7648	11.617
3.7621	11.610
3.7594	11.606
3.7566	11.608
3.7539	11.611
3.7512	11.615
3.7485	11.614
3.7458	11.612
3.7431	11.604
3.7404	11.601
3.7377	11.605
3.7350	11.599
3.7323	11.595
3.7296	11.597
3.7269	11.601
3.7242	11.599
3.7216	11.595
3.7189	11.594
3.7162	11.590
3.7136	11.576
3.7109	11.572
3.7083	11.581
3.7056	11.587
3.7030	11.576
3.7003	11.566
3.6977	11.571
3.6950	11.572
3.6924	11.570
3.6898	11.561
3.6872	11.562
3.6845	11.560
3.6819	11.552
3.6793	11.550
3.6767	11.554
3.6741	11.565
3.6715	11.562
3.6689	11.547
3.6663	11.548
3.6637	11.552
3.6611	11.553
3.6585	11.547
3.6560	11.540
3.6534	11.537
3.6508	11.531
3.6482	11.525
3.6457	11.536
3.6431	11.537
3.6406	11.531
3.6380	11.532
3.6355	11.533
3.6329	11.532
3.6304	11.524
3.6278	11.524
3.6253	11.517
3.6227	11.511
3.6202	11.505
3.6177	11.506
3.6152	11.506
3.6127	11.505
3.6101	11.495
3.6076	11.496
3.6051	11.502
3.6026	11.503
3.6001	11.487
3.5976	11.482
3.5951	11.479
3.5926	11.468
3.5901	11.469
3.5876	11.471
3.5852	11.464
3.5827	11.455
3.5802	11.455
3.5777	11.449
3.5753	11.435
3.5728	11.431
3.5704	11.434
3.5679	11.421
3.5654	11.415
3.5630	11.409
3.5605	11.407
3.5581	11.408
3.5557	11.399
3.5532	11.387
3.5508	11.377
3.5484	11.375
3.5459	11.372
3.5435	11.366
3.5411	11.361
3.5387	11.356
3.5363	11.347
3.5338	11.338
3.5314	11.336
3.5290	11.334
3.5266	11.313
3.5242	11.299
3.5218	11.287
3.5195	11.272
3.5171	11.251
3.5147	11.225
3.5123	11.203
3.5099	11.183
3.5075	11.156
3.5052	11.129
3.5028	11.106
3.5004	11.102
3.4981	11.110
3.4957	11.120
3.4934	11.128
3.4910	11.129
3.4887	11.131
3.4863	11.132
3.4840	11.132
3.4816	11.136
3.4793	11.135
3.4770	11.127
3.4746	11.127
3.4723	11.120
3.4700	11.116
3.4677	11.121
3.4653	11.111
3.4630	11.100
3.4607	11.098
3.4584	11.093
3.4561	11.083
3.4538	11.065
3.4515	11.057
3.4492	11.048
3.4469	11.040
3.4446	11.022
3.4423	10.998
3.4400	10.981
3.4378	10.969
3.4355	10.958
3.4332	10.940
3.4309	10.912
3.4287	10.891
3.4264	10.874
3.4241	10.846
3.4219	10.814
3.4196	10.794
3.4174	10.779
3.4151	10.776
3.4129	10.784
3.4106	10.792
3.4084	10.799
3.4061	10.816
3.4039	10.837
3.4017	10.851
3.3994	10.871
3.3972	10.880
3.3950	10.880
3.3928	10.885
3.3906	10.893
3.3883	10.900
3.3861	10.893
3.3839	10.882
3.3817	10.879
3.3795	10.874
3.3773	10.861
3.3751	10.857
3.3729	10.866
3.3707	10.869
3.3685	10.873
3.3663	10.885
3.3641	10.898
3.3620	10.914
3.3598	10.930
3.3576	10.929
3.3554	10.925
3.3533	10.931
3.3511	10.936
3.3489	10.941
3.3468	10.938
3.3446	10.931
3.3425	10.928
3.3403	10.925
3.3382	10.927
3.3360	10.923
3.3339	10.915
3.3317	10.912
3.3296	10.915
3.3274	10.915
3.3253	10.915
3.3232	10.912
3.3210	10.906
3.3189	10.906
3.3168	10.903
3.3147	10.889
3.3126	10.880
3.3104	10.879
3.3083	10.878
3.3062	10.873
3.3041	10.869
3.3020	10.861
3.2999	10.849
3.2978	10.850
3.2957	10.850
3.2936	10.844
3.2915	10.840
3.2894	10.835
3.2874	10.832
3.2853	10.826
3.2832	10.817
3.2811	10.812
3.2790	10.803
3.2770	10.792
3.2749	10.779
3.2728	10.782
3.2708	10.787
3.2687	10.768
3.2666	10.750
3.2646	10.755
3.2625	10.752
3.2605	10.743
3.2584	10.748
3.2564	10.747
3.2543	10.737
3.2523	10.729
3.2503	10.716
3.2482	10.713
3.2462	10.709
3.2442	10.702
3.2421	10.697
3.2401	10.699
3.2381	10.696
3.2361	10.686
3.2340	10.676
3.2320	10.667
3.2300	10.670
3.2280	10.664
3.2260	10.653
3.2240	10.648
3.2220	10.647
3.2200	10.637
3.2180	10.637
3.2160	10.641
3.2140	10.634
3.2120	10.620
3.2100	10.614
3.2080	10.611
3.2060	10.608
3.2040	10.601
3.2021	10.593
3.2001	10.588
3.1981	10.566
3.1961	10.560
3.1942	10.563
3.1922	10.552
3.1902	10.544
3.1883	10.546
3.1863	10.543
3.1844	10.531
3.1824	10.532
3.1805	10.521
3.1785	10.500
3.1766	10.491
3.1746	10.498
3.1727	10.492
3.1707	10.488
3.1688	10.481
3.1669	10.476
3.1649	10.461
3.1630	10.457
3.1611	10.456
3.1591	10.455
3.1572	10.439
3.1553	10.423
3.1534	10.422
3.1515	10.423
3.1495	10.426
3.1476	10.417
3.1457	10.400
3.1438	10.396
3.1419	10.395
3.1400	10.393
3.1381	10.376
3.1362	10.365
3.1343	10.354
3.1324	10.350
3.1305	10.355
3.1286	10.356
3.1268	10.352
3.1249	10.345
3.1230	10.337
3.1211	10.324
3.1192	10.317
3.1174	10.317
3.1155	10.307
3.1136	10.289
3.1117	10.290
3.1099	10.293
3.1080	10.288
3.1061	10.270
3.1043	10.268
3.1024	10.264
3.1006	10.256
3.0987	10.243
3.0969	10.245
3.0950	10.256
3.0932	10.245
3.0913	10.223
3.0895	10.222
3.0876	10.239
3.0858	10.226
3.0840	10.206
3.0821	10.210
3.0803	10.207
3.0785	10.189
3.0766	10.188
3.0748	10.198
3.0730	10.194
3.0712	10.186
3.0694	10.183
3.0675	10.177
3.0657	10.175
3.0639	10.157
3.0621	10.146
3.0603	10.142
3.0585	10.148
3.0567	10.150
3.0549	10.146
3.0531	10.144
3.0513	10.143
3.0495	10.139
3.0477	10.129
3.0459	10.120
3.0441	10.102
3.0423	10.101
3.0406	10.106
3.0388	10.103
3.0370	10.095
3.0352	10.087
3.0334	10.093
3.0317	10.087
3.0299	10.071
3.0281	10.058
3.0264	10.050
3.0246	10.058
3.0228	10.067
3.0211	10.048
3.0193	10.040
3.0176	10.044
3.0158	10.040
3.0140	10.031
3.0123	10.033
3.0105	10.020
3.0088	10.013
3.0070	10.022
3.0053	10.022
3.0036	10.009
3.0018	10.009
3.0001	10.006
2.9984	10.011
2.9966	10.007
2.9949	9.9873
2.9932	9.9699
2.9914	9.9675
2.9897	9.9551
2.9880	9.9577
2.9863	9.9682
2.9845	9.9546
2.9828	9.9458
2.9811	9.9524
2.9794	9.9565
2.9777	9.9536
2.9760	9.9524
2.9743	9.9345
2.9726	9.9089
2.9709	9.9104
2.9692	9.9167
2.9675	9.9040
2.9658	9.9050
2.9641	9.9128
2.9624	9.9079
2.9607	9.8840
2.9590	9.8716
2.9573	9.8730
2.9556	9.8694
2.9539	9.8567
2.9523	9.8506
2.9506	9.8574
2.9489	9.8537
2.9472	9.8467
2.9455	9.8532
2.9439	9.8449
2.9422	9.8249
2.9405	9.8147
2.9389	9.8286
2.9372	9.8374
2.9355	9.8376
2.9339	9.8403
2.9322	9.8501
2.9306	9.8418
2.9289	9.8459
2.9272	9.8684
2.9256	9.8786
2.9239	9.8738
2.9223	9.8659
2.9207	9.8642
2.9190	9.8786
2.9174	9.8877
2.9157	9.8974
2.9141	9.8918
2.9124	9.8864
2.9108	9.8974
2.9092	9.8979
2.9075	9.9062
2.9059	9.9201
2.9043	9.9182
2.9027	9.9162
2.9010	9.9236
2.8994	9.9226
2.8978	9.9306
2.8962	9.9409
2.8946	9.9284
2.8929	9.9187
2.8913	9.9350
2.8897	9.9536
2.8881	9.9533
2.8865	9.9470
2.8849	9.9521
2.8833	9.9592
2.8817	9.9741
2.8801	9.9800
2.8785	9.9739
2.8769	9.9658
2.8753	9.9653
2.8737	9.9809
2.8721	9.9980
2.8705	10.001
2.8689	10.008
2.8673	10.018
2.8658	10.028
2.8642	10.030
2.8626	10.034
2.8610	10.030
2.8594	10.046
2.8579	10.053
2.8563	10.050
2.8547	10.050
2.8531	10.063
2.8516	10.076
2.8500	10.083
2.8484	10.087
2.8469	10.089
2.8453	10.088
2.8437	10.085
2.8422	10.106
2.8406	10.122
2.8391	10.124
2.8375	10.127
2.8360	10.129
2.8344	10.137
2.8329	10.137
2.8313	10.145
2.8298	10.149
2.8282	10.154
2.8267	10.156
2.8252	10.155
2.8236	10.167
2.8221	10.173
2.8205	10.178
2.8190	10.185
2.8175	10.192
2.8159	10.191
2.8144	10.186
2.8129	10.196
2.8114	10.216
2.8098	10.235
2.8083	10.243
2.8068	10.242
2.8053	10.243
2.8038	10.259
2.8022	10.285
2.8007	10.292
2.7992	10.314
2.7977	10.338
2.7962	10.355
2.7947	10.360
2.7932	10.354
2.7917	10.377
2.7902	10.405
2.7887	10.419
2.7872	10.427
2.7857	10.427
2.7842	10.445
2.7827	10.456
2.7812	10.473
2.7797	10.491
2.7782	10.510
2.7767	10.519
2.7752	10.540
2.7738	10.582
2.7723	10.600
2.7708	10.601
2.7693	10.622
2.7678	10.642
2.7664	10.650
2.7649	10.667
2.7634	10.667
2.7619	10.667
2.7605	10.686
2.7590	10.710
2.7575	10.741
2.7561	10.752
2.7546	10.774
2.7531	10.815
2.7517	10.835
2.7502	10.860
2.7488	10.878
2.7473	10.882
2.7458	10.896
2.7444	10.924
2.7429	10.939
2.7415	10.938
2.7400	10.957
2.7386	10.985
2.7371	11.004
2.7357	11.009
2.7343	11.026
2.7328	11.049
2.7314	11.066
2.7299	11.083
2.7285	11.108
2.7271	11.116
2.7256	11.108
2.7242	11.110
2.7228	11.138
2.7213	11.134
2.7199	11.133
2.7185	11.177
2.7171	11.194
2.7156	11.194
2.7142	11.202
2.7128	11.216
2.7114	11.215
2.7100	11.221
2.7085	11.235
2.7071	11.234
2.7057	11.253
2.7043	11.266
2.7029	11.273
2.7015	11.281
2.7001	11.284
2.6987	11.296
2.6973	11.297
2.6959	11.291
2.6945	11.295
2.6931	11.310
2.6917	11.338
2.6903	11.342
2.6889	11.339
2.6875	11.322
2.6861	11.329
2.6847	11.359
2.6833	11.344
2.6819	11.327
2.6805	11.349
2.6791	11.351
2.6778	11.354
2.6764	11.357
2.6750	11.354
2.6736	11.354
2.6722	11.361
2.6709	11.330
2.6695	11.329
2.6681	11.351
2.6667	11.327
2.6654	11.323
2.6640	11.352
2.6626	11.362
2.6613	11.355
2.6599	11.342
2.6585	11.340
2.6572	11.346
2.6558	11.344
2.6545	11.347
2.6531	11.351
2.6517	11.340
2.6504	11.336
2.6490	11.354
2.6477	11.350
2.6463	11.327
2.6450	11.329
2.6436	11.328
2.6423	11.313
2.6409	11.305
2.6396	11.317
2.6382	11.320
2.6369	11.302
2.6356	11.292
2.6342	11.300
2.6329	11.302
2.6315	11.273
2.6302	11.269
2.6289	11.299
2.6275	11.296
2.6262	11.269
2.6249	11.284
2.6236	11.302
2.6222	11.281
2.6209	11.234
2.6196	11.223
2.6183	11.234
2.6169	11.250
2.6156	11.268
2.6143	11.259
2.6130	11.260
2.6117	11.256
2.6103	11.236
2.6090	11.228
2.6077	11.228
2.6064	11.211
2.6051	11.203
2.6038	11.224
2.6025	11.199
2.6012	11.179
2.5999	11.213
2.5986	11.233
2.5973	11.220
2.5960	11.186
2.5947	11.126
2.5934	11.128
2.5921	11.173
2.5908	11.193
2.5895	11.171
2.5882	11.162
2.5869	11.148
2.5856	11.148
2.5843	11.162
2.5830	11.164
2.5817	11.156
2.5805	11.165
2.5792	11.182
2.5779	11.150
2.5766	11.129
2.5753	11.124
2.5741	11.126
2.5728	11.131
2.5715	11.144
2.5702	11.127
2.5690	11.108
2.5677	11.114
2.5664	11.113
2.5651	11.111
2.5639	11.105
2.5626	11.101
2.5613	11.102
2.5601	11.104
2.5588	11.088
2.5575	11.106
2.5563	11.106
2.5550	11.086
2.5538	11.073
2.5525	11.067
2.5513	11.063
2.5500	11.075
2.5487	11.073
2.5475	11.053
2.5462	11.033
2.5450	11.047
2.5437	11.061
2.5425	11.039
2.5413	11.020
2.5400	10.987
2.5388	10.991
2.5375	11.011
2.5363	11.005
2.5350	10.986
2.5338	10.996
2.5326	10.996
2.5313	10.992
2.5301	10.984
2.5289	10.990
2.5276	10.997
2.5264	10.999
2.5252	10.983
2.5239	10.983
2.5227	10.971
2.5215	10.941
2.5202	10.939
2.5190	10.938
2.5178	10.950
2.5166	10.958
2.5154	10.932
2.5141	10.901
2.5129	10.894
2.5117	10.893
2.5105	10.893
2.5093	10.877
2.5081	10.874
2.5068	10.888
2.5056	10.882
2.5044	10.868
2.5032	10.871
2.5020	10.869
2.5008	10.850
2.4996	10.848
2.4984	10.851
2.4972	10.838
2.4960	10.843
2.4948	10.840
2.4936	10.817
2.4924	10.804
2.4912	10.796
2.4900	10.792
2.4888	10.803
2.4876	10.815
2.4864	10.816
2.4852	10.801
2.4840	10.776
2.4828	10.771
2.4816	10.782
2.4805	10.775
2.4793	10.755
2.4781	10.763
2.4769	10.765
2.4757	10.765
2.4745	10.759
2.4734	10.723
2.4722	10.730
2.4710	10.747
2.4698	10.748
2.4686	10.730
2.4675	10.729
2.4663	10.713
2.4651	10.700
2.4640	10.697
2.4628	10.702
2.4616	10.689
2.4604	10.679
2.4593	10.683
2.4581	10.677
2.4569	10.663
2.4558	10.661
2.4546	10.675
2.4535	10.665
2.4523	10.656
2.4511	10.631
2.4500	10.636
2.4488	10.653
2.4477	10.649
2.4465	10.613
2.4454	10.592
2.4442	10.599
2.4431	10.609
2.4419	10.618
2.4408	10.598
2.4396	10.586
2.4385	10.580
2.4373	10.564
2.4362	10.561
2.4350	10.561
2.4339	10.564
2.4327	10.558
2.4316	10.565
2.4305	10.572
2.4293	10.536
2.4282	10.518
2.4270	10.562
2.4259	10.565
2.4248	10.551
2.4236	10.563
2.4225	10.553
2.4214	10.527
2.4202	10.514
2.4191	10.525
2.4180	10.524
2.4169	10.503
2.4157	10.492
2.4146	10.481
2.4135	10.469
2.4124	10.496
2.4112	10.484
2.4101	10.474
2.4090	10.471
2.4079	10.462
2.4068	10.454
2.4056	10.460
2.4045	10.456
2.4034	10.438
2.4023	10.420
2.4012	10.436
2.4001	10.449
2.3990	10.449
2.3979	10.438
2.3967	10.422
2.3956	10.396
2.3945	10.394
2.3934	10.421
2.3923	10.428
2.3912	10.411
2.3901	10.395
2.3890	10.405
2.3879	10.413
2.3868	10.399
2.3857	10.394
2.3846	10.390
2.3835	10.384
2.3824	10.401
2.3813	10.389
2.3802	10.362
2.3791	10.384
2.3781	10.371
2.3770	10.365
2.3759	10.370
2.3748	10.351
2.3737	10.326
2.3726	10.327
2.3715	10.326
2.3704	10.333
2.3694	10.337
2.3683	10.334
2.3672	10.290
2.3661	10.277
2.3650	10.301
2.3640	10.316
2.3629	10.319
2.3618	10.320
2.3607	10.315
2.3597	10.280
2.3586	10.295
2.3575	10.315
2.3564	10.269
2.3554	10.269
2.3543	10.281
2.3532	10.266
2.3522	10.241
2.3511	10.273
2.3500	10.290
2.3490	10.266
2.3479	10.269
2.3468	10.260
2.3458	10.240
2.3447	10.251
2.3436	10.226
2.3426	10.205
2.3415	10.218
2.3405	10.191
2.3394	10.163
2.3384	10.172
2.3373	10.199
2.3363	10.222
2.3352	10.200
2.3342	10.163
2.3331	10.184
2.3321	10.199
2.3310	10.175
2.3300	10.146
2.3289	10.144
2.3279	10.162
2.3268	10.165
2.3258	10.175
2.3247	10.166
2.3237	10.117
2.3226	10.139
2.3216	10.139
2.3206	10.109
2.3195	10.114
2.3185	10.113
2.3175	10.104
2.3164	10.123
2.3154	10.113
2.3144	10.079
2.3133	10.083
2.3123	10.080
2.3113	10.080
2.3102	10.068
2.3092	10.063
2.3082	10.081
2.3071	10.122
2.3061	10.105
2.3051	10.091
2.3041	10.087
2.3030	10.064
2.3020	10.061
2.3010	10.069
2.3000	10.053
2.2990	10.062
2.2979	10.070
2.2969	10.055
2.2959	10.061
2.2949	10.068
2.2939	10.045
2.2929	10.021
2.2918	10.036
2.2908	10.025
2.2898	10.044
2.2888	10.044
2.2878	9.9961
2.2868	9.9980
2.2858	10.030
2.2848	10.018
2.2838	9.9795
2.2828	9.9746
2.2818	10.011
2.2808	10.038
2.2798	10.008
2.2787	10.003
2.2777	9.9746
2.2767	9.9599
2.2757	9.9863
2.2747	9.9819
2.2738	9.9634
2.2728	9.9604
2.2718	9.9682
2.2708	9.9614
2.2698	9.9673
2.2688	9.9697
2.2678	9.9865
2.2668	9.9873
2.2658	9.9289
2.2648	9.9428
2.2638	9.9802
2.2628	9.9634
2.2618	9.9233
2.2609	9.9414
2.2599	9.9360
2.2589	9.9201
2.2579	9.8882
2.2569	9.8618
2.2559	9.8552
2.2550	9.8772
2.2540	9.9167
2.2530	9.9236
2.2520	9.9170
2.2510	9.9211
2.2501	9.9575
2.2491	9.9438
2.2481	9.9443
2.2471	9.9367
2.2462	9.9218
2.2452	9.9126
2.2442	9.8989
2.2433	9.8830
2.2423	9.9040
2.2413	9.8984
2.2403	9.8843
2.2394	9.8857
2.2384	9.8896
2.2374	9.8703
2.2365	9.8684
2.2355	9.8664
2.2345	9.9055
2.2336	9.9135
2.2326	9.8901
2.2317	9.9033
2.2307	9.9131
2.2297	9.9126
2.2288	9.8972
2.2278	9.8398
2.2269	9.8225
2.2259	9.8474
2.2250	9.8476
2.2240	9.8718
2.2231	9.8852
2.2221	9.8532
2.2211	9.8523
2.2202	9.8733
2.2192	9.8496
2.2183	9.8232
2.2173	9.8203
2.2164	9.8191
2.2155	9.8491
2.2145	9.8508
2.2136	9.8276
2.2126	9.8376
2.2117	9.8274
2.2107	9.8081
2.2098	9.8261
2.2088	9.8352
2.2079	9.8022
2.2070	9.8054
2.2060	9.8384
2.2051	9.8252
2.2041	9.7959
2.2032	9.7851
2.2023	9.7905
2.2013	9.8017
2.2004	9.8335
2.1995	9.8381
2.1985	9.8200
2.1976	9.7881
2.1967	9.7671
2.1957	9.7734
2.1948	9.7771
2.1939	9.7837
2.1930	9.7519
2.1920	9.7373
2.1911	9.7529
2.1902	9.7651
2.1893	9.7746
2.1883	9.7512
2.1874	9.7412
2.1865	9.7500
2.1856	9.7544
2.1846	9.7607
2.1837	9.7534
2.1828	9.7229
2.1819	9.7287
2.1810	9.7632
2.1800	9.7197
2.1791	9.6567
2.1782	9.6653
2.1773	9.7070
2.1764	9.7085
2.1755	9.7019
2.1746	9.7051
2.1736	9.6950
2.1727	9.7239
2.1718	9.6789
2.1709	9.6399
2.1700	9.6279
2.1691	9.6604
2.1682	9.6899
2.1673	9.6784
2.1664	9.6469
2.1655	9.6574
2.1646	9.6601
2.1637	9.6682
2.1628	9.6743
2.1619	9.6469
2.1610	9.6281
2.1601	9.6333
2.1592	9.6145
2.1583	9.6145
2.1574	9.6389
2.1565	9.6899
2.1556	9.6963
2.1547	9.6587
2.1538	9.6465
2.1529	9.6355
2.1520	9.6294
2.1511	9.5976
2.1502	9.5993
2.1493	9.6457
2.1484	9.6440
2.1475	9.6054
2.1466	9.5920
2.1458	9.6233
2.1449	9.6406
2.1440	9.6047
2.1431	9.5835
2.1422	9.6191
2.1413	9.6135
2.1404	9.5840
2.1396	9.5971
2.1387	9.6147
2.1378	9.6172
2.1369	9.5854
2.1360	9.5488
2.1352	9.5415
2.1343	9.5842
2.1334	9.5989
2.1325	9.6069
2.1316	9.5979
2.1308	9.5803
2.1299	9.5747
2.1290	9.5637
2.1281	9.5705
2.1273	9.5715
2.1264	9.5757
2.1255	9.5696
2.1247	9.5656
2.1238	9.6006
2.1229	9.6054
2.1220	9.6096
2.1212	9.5937
2.1203	9.5952
2.1194	9.5735
2.1186	9.5600
2.1177	9.5434
2.1168	9.5420
2.1160	9.5659
2.1151	9.5725
2.1143	9.5708
2.1134	9.5312
2.1125	9.5512
2.1117	9.5461
2.1108	9.5459
2.1100	9.5569
2.1091	9.5403
2.1082	9.5171
2.1074	9.5246
2.1065	9.5503
2.1057	9.5627
2.1048	9.5342
2.1040	9.5454
2.1031	9.5205
2.1023	9.4795
2.1014	9.5166
2.1005	9.4973
2.0997	9.4780
2.0988	9.5171
2.0980	9.4858
2.0971	9.4985
2.0963	9.5190
2.0955	9.5178
2.0946	9.5110
2.0938	9.5129
2.0929	9.5010
2.0921	9.4797
2.0912	9.4778
2.0904	9.5100
2.0895	9.4924
2.0887	9.4992
2.0879	9.4863
2.0870	9.4267
2.0862	9.4592
2.0853	9.4760
2.0845	9.4780
2.0837	9.4863
2.0828	9.4790
2.0820	9.4521
2.0812	9.4531
2.0803	9.4446
2.0795	9.4863

